P-impedance image
1 100 130 1 0.000000 0.000000 -1.000000 1.000000 1.000000 -1.000000 0.000000
VValue
6758.56
6809.11
6864.14
6944.22
7032.08
6878.46
6912.33
6936.4
6962.95
6946.09
6930.45
6897.63
6853.01
6729.42
6663.12
6588.12
6505.26
6415.31
6319.06
5841.08
5706.27
5674.79
5559.7
5434.73
5341.3
5232.66
5150.92
5085.19
5053.48
5041.53
5094.46
5223.66
5415.15
5624.82
5849.04
6110.71
6351.01
6584.84
6800.89
7003.31
7190.56
7362.06
7517.9
7640.77
7762.22
7433.97
7337.78
7252.76
7124.83
6978.68
6779.69
6611.43
6405.69
6166.97
5913.62
5631.33
5329.59
5022.34
4723.21
4498.0
4580.41
4740.01
4911.96
5079.04
5232.53
5349.23
5460.27
5539.86
5710.98
5840.54
5987.35
6149.58
6320.97
6489.38
6711.86
6870.62
7009.98
7144.95
7270.6
7445.12
7545.8
7630.15
7695.06
7725.07
7682.11
7666.59
7627.73
7566.97
7486.95
7399.42
7211.89
7090.56
6963.73
6834.54
6706.66
6585.0
6476.53
6390.47
6336.17
6317.82
6721.36
6778.04
6843.42
6934.54
7033.1
7132.99
6952.34
6982.74
6999.3
7013.79
6982.21
6952.91
6907.7
6783.5
6715.37
6638.49
6553.76
6461.99
6363.93
6260.34
5855.8
5739.64
5626.33
5506.34
5413.32
5307.18
5226.5
5161.51
5111.48
5094.28
5143.33
5283.36
5489.19
5710.73
5942.93
6184.22
6449.62
6678.83
6905.54
7116.85
7302.55
7470.85
7608.57
7732.7
7849.51
7546.11
7461.79
7387.26
7271.09
7135.94
6979.03
6763.59
6558.02
6361.18
6101.06
5820.74
5526.76
5230.81
4959.92
4790.75
4804.65
4921.69
5074.41
5232.06
5368.25
5488.59
5573.13
5642.11
5757.32
5872.11
6020.22
6172.42
6355.88
6571.19
6732.83
6892.4
7049.12
7174.07
7301.46
7465.95
7569.98
7657.8
7713.91
7709.27
7718.87
7702.17
7659.84
7593.74
7506.98
7320.56
7220.15
7091.5
6956.72
6818.54
6680.1
6545.95
6423.54
6325.04
6238.57
6234.17
6696.75
6760.22
6848.59
6939.97
7049.42
7158.09
7248.52
7061.67
7065.1
7068.07
7066.11
7017.43
6973.42
6849.02
6778.87
6700.18
6613.88
6520.79
6421.64
6317.16
5936.5
5824.18
5714.97
5597.93
5492.54
5413.58
5339.18
5255.27
5209.52
5217.1
5284.44
5421.36
5615.75
5838.47
6073.32
6322.59
6582.42
6812.71
7028.51
7238.11
7418.81
7591.65
7707.83
7833.22
7974.07
7660.5
7589.35
7536.2
7435.28
7315.17
7172.3
6973.51
6778.57
6587.89
6336.57
6069.6
5792.66
5525.4
5297.82
5156.04
5129.6
5193.0
5297.41
5433.26
5568.6
5677.55
5720.24
5737.78
5799.05
5914.05
6065.17
6239.77
6409.48
6604.44
6764.84
6923.39
7079.69
7211.05
7371.23
7488.72
7594.27
7673.86
7729.25
7743.96
7754.81
7737.38
7692.2
7621.63
7520.29
7347.97
7235.35
7101.98
6962.21
6818.32
6672.81
6482.28
6357.26
6256.13
6200.11
6202.29
6692.99
6763.32
6861.76
6976.98
7084.43
7200.59
7307.83
7390.6
7160.37
7166.04
7133.38
7113.01
7047.23
6989.43
6852.48
6772.1
6684.61
6590.79
6491.34
6386.93
6033.93
5927.29
5824.34
5706.38
5610.23
5526.19
5485.71
5399.6
5366.55
5399.19
5475.8
5608.85
5780.28
6001.88
6233.76
6491.65
6716.71
6965.69
7178.3
7371.94
7545.2
7708.94
7822.42
7940.18
8085.43
7790.27
7785.27
7668.9
7614.4
7513.5
7389.28
7212.23
7055.3
6850.5
6611.21
6359.99
6101.86
5860.08
5659.38
5526.27
5474.56
5494.95
5565.8
5665.33
5782.55
5915.6
5886.14
5858.23
5832.79
5983.2
6139.94
6306.45
6464.9
6652.49
6808.41
6963.48
7117.83
7255.85
7397.05
7511.0
7606.38
7695.56
7732.64
7772.83
7785.16
7767.69
7720.81
7647.33
7491.32
7378.56
7256.76
7122.22
6981.53
6780.8
6640.28
6502.34
6373.46
6267.49
6209.3
6215.78
6718.94
6795.13
6901.13
7024.38
7140.21
7261.76
7371.2
7454.44
7530.8
7593.91
7239.4
7208.15
7150.35
7119.06
6934.61
6852.79
6764.59
6670.72
6571.82
6458.14
6147.87
6047.13
5927.47
5837.63
5755.52
5675.14
5659.59
5546.13
5552.4
5603.44
5689.25
5834.44
5972.66
6182.73
6415.95
6647.84
6894.59
7132.35
7339.49
7526.23
7691.12
7816.81
7942.16
8050.78
8180.41
7923.87
7886.91
7886.36
7832.13
7726.58
7613.58
7484.8
7332.71
7141.61
6913.88
6675.42
6430.93
6204.84
6016.64
5883.03
5811.9
5799.13
5832.37
5883.09
5967.42
6032.84
6039.73
6033.6
6031.17
6113.86
6256.79
6397.85
6542.76
6715.44
6862.93
7010.77
7159.29
7298.5
7419.91
7528.46
7620.41
7683.05
7748.32
7790.38
7804.36
7787.84
7741.05
7673.11
7522.04
7410.19
7220.76
7092.29
6959.01
6823.29
6687.58
6555.54
6433.9
6335.98
6282.85
6287.51
6777.65
6857.95
6967.63
7094.83
7227.04
7340.45
7449.76
7539.0
7599.24
7652.98
7696.8
7296.14
7257.26
7219.37
7135.98
6940.41
6852.1
6758.97
6661.55
6562.33
6453.02
6342.15
6066.28
5981.63
5911.16
5840.57
5797.19
5734.11
5754.37
5820.27
5912.58
6062.92
6176.52
6380.8
6600.79
6836.15
7083.99
7290.75
7505.68
7683.99
7839.11
7948.43
8063.46
8189.84
8275.38
8057.35
8038.63
8049.51
7978.52
7936.8
7866.34
7763.71
7631.22
7444.53
7238.87
7000.61
6761.87
6542.12
6357.33
6218.84
6131.29
6091.92
6092.09
6123.78
6148.33
6184.82
6215.3
6227.02
6262.51
6289.57
6391.0
6509.16
6635.84
6791.67
6926.99
7063.14
7199.81
7332.89
7430.03
7529.16
7623.22
7684.28
7748.9
7791.56
7807.15
7792.92
7748.67
7638.5
7547.47
7371.34
7256.51
7134.77
7009.18
6882.34
6757.15
6637.76
6531.09
6448.4
6403.74
6404.36
6862.65
6945.21
7055.08
7182.59
7316.2
7431.69
7539.04
7620.58
7672.36
7714.1
7747.08
7775.23
7342.07
7286.79
7239.47
7148.53
7033.05
6935.58
6837.69
6653.76
6550.12
6445.08
6213.06
6137.96
6073.92
6018.13
5987.05
5932.47
5965.96
6041.57
6138.2
6292.18
6383.13
6580.93
6794.86
7015.01
7247.56
7470.12
7669.78
7838.79
7981.69
8078.62
8182.52
8291.18
8367.29
8186.14
8184.65
8180.49
8171.96
8160.63
8124.99
8054.72
7943.72
7768.84
7566.88
7327.13
7079.57
6859.44
6673.52
6529.14
6428.31
6368.2
6341.83
6335.7
6340.34
6382.94
6399.62
6421.06
6460.74
6478.18
6535.7
6632.45
6735.16
6883.98
6999.19
7120.75
7242.13
7361.05
7474.64
7505.13
7595.47
7671.29
7732.32
7773.7
7784.59
7774.01
7755.26
7647.96
7565.87
7398.55
7293.74
7182.69
7068.64
6954.55
6843.66
6740.33
6650.84
6583.6
6547.12
6545.17
6962.0
7045.14
7152.74
7277.59
7409.86
7536.83
7628.96
7700.44
7745.69
7771.43
7793.5
7812.48
7830.41
7361.99
7298.87
7254.92
7131.49
7022.21
6931.34
6753.63
6656.57
6558.19
6368.53
6310.69
6255.08
6207.3
6181.44
6135.04
6178.95
6261.61
6396.91
6515.75
6585.61
6776.85
6982.8
7195.96
7414.02
7644.68
7814.46
7984.74
8090.67
8203.43
8297.46
8387.33
8453.04
8305.44
8335.21
8332.51
8348.93
8365.58
8377.42
8348.26
8259.7
8092.48
7871.33
7609.74
7368.4
7145.72
6958.74
6810.66
6700.93
6626.16
6601.08
6553.44
6544.75
6578.15
6591.46
6614.41
6653.11
6708.78
6683.11
6745.18
6841.37
6942.57
7078.14
7184.08
7289.49
7381.56
7480.36
7502.39
7579.56
7646.58
7700.69
7738.59
7750.45
7744.82
7741.65
7646.56
7504.29
7422.75
7331.47
7234.36
7134.81
7036.0
6941.33
6854.93
6781.98
6728.38
6699.27
6696.68
7065.04
7147.0
7250.15
7369.07
7495.6
7617.54
7702.31
7764.14
7798.53
7819.48
7832.01
7843.12
7854.06
7866.15
7379.89
7314.76
7179.35
7102.25
7030.25
6860.21
6770.67
6679.74
6540.25
6478.38
6441.48
6414.4
6376.27
6371.27
6389.2
6476.14
6613.37
6728.86
6779.08
6963.21
7160.39
7363.99
7566.67
7785.03
7963.53
8117.76
8218.02
8319.87
8408.63
8475.33
8542.12
8443.63
8443.45
8470.06
8504.4
8540.74
8601.68
8629.57
8556.86
8401.02
8146.39
7861.59
7612.25
7393.53
7212.65
7061.49
6948.45
6865.27
6799.78
6764.13
6744.47
6776.75
6785.66
6781.67
6838.56
6884.46
6876.16
6873.0
6953.55
7038.89
7162.37
7252.59
7329.82
7416.02
7460.63
7504.82
7561.4
7616.38
7660.85
7687.68
7705.59
7734.37
7719.17
7563.49
7510.88
7444.98
7369.67
7288.69
7205.5
7123.32
7045.48
6975.65
6917.9
6876.31
6854.07
6852.36
7165.02
7243.93
7340.42
7449.94
7565.24
7675.18
7764.6
7802.12
7832.07
7848.25
7860.27
7865.38
7870.27
7876.63
7885.98
7394.1
7261.47
7192.04
7120.63
7057.95
6890.7
6899.6
6710.05
6650.95
6615.33
6593.85
6600.45
6584.12
6608.18
6682.02
6817.27
6800.11
6960.28
7136.53
7324.06
7517.1
7709.2
7892.32
8098.31
8217.21
8335.91
8432.36
8546.11
8581.94
8613.46
8641.01
8654.04
8555.85
8595.75
8647.96
8738.18
8878.13
8740.62
8638.35
8326.2
8034.73
7793.81
7591.96
7425.37
7292.3
7190.04
7069.61
7011.87
6970.85
6942.21
6973.88
6977.24
6994.41
7017.64
7053.69
7023.41
6993.79
7059.8
7130.13
7203.3
7266.38
7342.0
7415.3
7478.26
7544.16
7543.69
7589.53
7617.84
7643.88
7689.74
7700.48
7695.85
7554.08
7516.87
7467.49
7409.15
7345.3
7279.24
7214.09
7152.93
7098.87
7055.07
7024.36
7008.79
7009.04
7258.61
7332.85
7420.99
7518.83
7619.77
7714.49
7792.2
7820.59
7849.52
7864.32
7871.26
7879.07
7878.42
7878.99
7883.08
7892.9
7362.67
7307.9
7250.6
7204.22
7103.0
7028.92
6951.79
6822.83
6793.2
6776.72
6776.65
6774.98
6803.91
6876.91
7006.27
6973.46
7127.29
7294.86
7471.97
7653.62
7829.34
8004.68
8189.53
8330.03
8494.76
8524.76
8569.19
8597.99
8622.87
8643.62
8658.24
8672.46
8683.93
8694.42
8705.54
8696.2
8689.08
8575.01
8359.77
8113.14
7897.57
7745.09
7774.26
7659.92
7550.81
7309.66
7214.85
7169.75
7135.43
7138.48
7136.0
7174.78
7189.43
7215.68
7168.52
7125.65
7178.48
7235.16
7278.92
7342.81
7402.18
7459.43
7504.95
7558.83
7541.69
7570.21
7593.38
7612.88
7661.36
7676.18
7574.29
7549.72
7526.66
7493.01
7451.26
7404.35
7355.26
7306.83
7261.74
7222.57
7191.69
7171.1
7162.12
7165.14
7344.75
7413.32
7492.44
7578.22
7664.96
7745.44
7812.39
7861.44
7858.45
7872.2
7876.72
7885.4
7878.91
7872.78
7848.49
7855.46
7842.96
7845.72
7350.54
7298.07
7217.05
7153.91
7097.06
7072.58
6966.84
6953.24
6954.86
6954.15
6988.74
7101.77
7178.8
7132.49
7279.18
7431.77
7597.95
7767.94
7937.23
8128.76
8277.01
8423.83
8555.88
8557.52
8580.25
8606.75
8624.78
8638.17
8655.84
8657.83
8650.97
8630.32
8584.12
8524.85
8475.7
8390.01
8320.35
8139.45
7989.46
7858.83
7845.98
7754.48
7665.6
7579.99
7475.31
7399.89
7350.24
7309.12
7328.19
7346.87
7352.76
7354.25
7363.12
7212.9
7196.75
7241.44
7290.38
7380.55
7469.79
7512.55
7542.6
7586.65
7620.19
7574.19
7589.08
7632.91
7652.17
7566.65
7571.8
7555.18
7543.76
7523.89
7497.29
7466.25
7433.27
7400.74
7370.86
7345.67
7326.89
7315.87
7313.44
7332.21
7439.18
7486.23
7556.6
7631.28
7705.6
7774.1
7831.71
7875.16
7865.01
7876.67
7878.15
7882.56
7849.04
7835.42
7825.85
7826.03
7881.51
7893.67
7943.77
7990.62
7435.8
7385.61
7369.25
7262.9
7271.85
7121.9
7134.47
7175.67
7181.71
7263.94
7334.25
7271.34
7410.04
7558.49
7713.41
7871.16
8027.94
8208.39
8448.77
8504.76
8550.49
8571.3
8586.13
8606.9
8618.88
8625.43
8649.84
8640.8
8618.7
8576.15
8487.1
8344.44
8369.01
8319.4
8231.28
8155.57
8140.45
8159.7
7920.89
7849.66
7780.04
7711.74
7621.94
7546.92
7521.34
7484.08
7393.03
7369.01
7458.61
7364.34
7373.93
7292.58
7319.4
7352.45
7389.75
7469.42
7544.59
7574.83
7591.88
7624.92
7648.03
7598.32
7606.7
7648.04
7664.28
7577.21
7584.37
7572.63
7569.98
7561.45
7548.01
7531.28
7513.12
7495.38
7479.73
7467.61
7460.2
7458.32
7472.41
7485.14
7554.52
7567.65
7629.73
7680.43
7744.39
7803.07
7852.66
7890.49
7915.46
7870.17
7860.96
7866.81
7844.29
7819.15
7796.06
7784.5
7830.55
7859.62
7918.74
7976.42
8027.04
7536.45
7523.64
7428.74
7371.19
7399.65
7311.67
7320.75
7323.41
7426.34
7483.78
7560.15
7653.45
7669.77
7813.28
7958.67
8106.23
8262.52
8464.62
8514.37
8552.42
8573.16
8589.44
8598.52
8605.75
8606.76
8643.05
8626.49
8596.49
8529.68
8462.18
8389.09
8350.4
8303.09
8241.48
8190.83
8171.45
8178.96
8200.37
7955.5
7893.69
7842.64
7768.87
7708.42
7634.09
7577.24
7554.24
7529.01
7508.44
7509.02
7508.87
7441.4
7442.73
7466.09
7493.87
7562.71
7587.9
7645.66
7652.06
7676.05
7690.73
7705.43
7672.29
7682.39
7598.58
7603.77
7610.97
7601.72
7605.35
7605.84
7603.52
7599.37
7594.59
7590.42
7587.95
7588.05
7591.36
7604.56
7618.42
7611.0
7622.72
7671.19
7683.78
7740.42
7782.67
7833.32
7876.06
7908.57
7916.51
7887.55
7871.76
7849.86
7842.97
7804.3
7762.53
7731.04
7761.24
7809.77
7889.08
7986.98
8051.01
8093.33
8146.57
7601.71
7503.64
7446.82
7430.61
7453.24
8072.33
7572.89
7596.73
7666.12
7751.56
7850.05
7907.44
8034.52
8158.14
8430.72
8471.89
8514.77
8552.39
8567.73
8585.52
8592.63
8593.51
8583.66
8637.08
8616.78
8587.48
8515.66
8465.65
8412.25
8365.74
8316.59
8267.38
8228.13
8208.09
8207.83
8222.39
8246.67
8276.37
7972.09
7904.82
7828.8
7795.87
7741.15
7686.44
7715.2
7688.15
7671.57
7639.16
7644.81
7581.69
7580.76
7601.38
7662.02
7637.27
7673.19
7721.42
7727.97
7733.06
7769.3
7789.91
7671.25
7640.05
7642.43
7635.42
7640.47
7648.59
7656.22
7663.26
7670.08
7677.28
7685.46
7695.14
7706.63
7690.44
7712.29
7735.11
7735.34
7685.77
7729.52
7775.56
7821.5
7833.14
7853.25
7975.92
7973.58
7967.36
7906.57
7888.32
7862.35
7849.83
7799.42
7739.89
7696.0
7677.47
7765.52
7880.67
7989.06
8073.69
8115.37
8171.8
8205.21
8149.77
8198.67
8187.31
8187.59
8120.5
8062.5
7705.42
7779.74
8211.43
8250.81
8243.11
8302.23
8360.42
8416.51
8476.63
8521.26
8547.65
8581.03
8601.32
8581.73
8582.01
8574.21
8548.2
8603.76
8576.52
8511.09
8468.93
8430.09
8384.7
8339.58
8297.35
8263.37
8242.65
8237.04
8245.75
8267.04
8298.07
8285.27
8047.82
7999.77
7956.57
7900.0
7846.54
7857.26
7825.22
7788.48
7779.13
7760.8
7767.66
7782.64
7710.23
7725.56
7732.85
7740.35
7798.62
7797.17
7810.98
7828.46
7829.7
7773.37
7777.2
7675.74
7680.71
7689.91
7697.76
7711.22
7726.22
7742.66
7760.57
7779.98
7770.89
7795.04
7808.21
7833.23
7857.74
7881.17
7744.41
7784.19
7825.56
7866.45
7867.68
8001.43
8002.23
7999.69
7992.58
7979.66
7910.94
7884.08
7871.99
7817.68
7747.63
7674.25
7620.6
7743.56
7892.99
8022.22
8114.67
8173.93
8178.54
8158.85
8135.47
8169.81
8150.88
8138.15
8091.15
8049.47
8135.58
8156.21
8191.99
8176.19
8236.68
8296.51
8354.62
8410.05
8461.77
8529.46
8563.64
8580.44
8597.41
8611.04
8565.25
8579.46
8531.14
8607.0
8581.49
8509.93
8476.11
8443.32
8404.23
8364.56
8327.1
8295.46
8273.07
8262.3
8264.84
8282.53
8256.85
8304.72
8343.26
8374.29
8132.35
8058.62
7999.28
7991.9
7948.94
7912.08
7892.26
7872.73
7879.78
7888.85
7856.61
7845.5
7844.77
7844.11
7871.73
7886.17
7883.79
7877.56
7866.7
7888.13
7819.17
7835.15
7730.51
7740.24
7750.82
7769.26
7791.21
7776.28
7820.86
7848.68
7878.58
7897.21
7931.52
7964.5
7995.21
8022.88
7799.17
7835.69
7873.4
7870.22
8024.48
8028.61
8030.08
8027.45
8019.43
7958.65
7939.11
7913.47
7906.52
7859.81
7823.17
7741.86
7718.75
7814.69
7955.07
8088.55
8190.36
8218.81
8203.7
8155.27
8114.74
8115.45
8108.31
8089.3
8083.57
8063.76
8128.0
8123.81
8163.12
8165.07
8226.33
8286.11
8343.59
8398.21
8449.3
8520.16
8570.99
8571.73
8592.75
8542.77
8558.34
8572.24
8570.31
8609.01
8578.75
8555.75
8557.66
8457.34
8424.32
8389.66
8355.55
8324.59
8299.43
8282.48
8227.46
8233.29
8268.17
8341.01
8401.75
8434.06
8436.28
8236.35
8156.92
8096.1
8065.11
8022.04
7993.41
7973.38
7968.34
7978.19
8096.91
8043.18
8003.34
7974.99
7953.04
7968.84
7950.86
7931.79
7920.31
7916.07
7873.04
7873.73
7892.52
7922.44
7922.95
7814.41
7838.8
7868.71
7903.04
7940.66
7963.68
8007.76
8050.56
8090.73
8127.06
8158.64
7850.38
7884.31
7919.24
8043.81
8051.19
8056.91
8059.35
8056.68
8002.34
7987.73
7968.32
7973.12
8001.68
7940.47
7880.04
7830.71
7832.36
7918.27
8038.83
8165.94
8261.69
8263.71
8217.07
8107.8
8081.9
8034.87
8059.46
8035.7
8028.96
8062.34
8087.85
8118.26
8157.8
8150.34
8211.66
8270.82
8327.42
8381.52
8422.3
8476.12
8495.61
8527.36
8554.61
8559.79
8572.56
8580.74
8568.2
8620.43
8624.93
8606.24
8578.51
8543.61
8444.78
8414.45
8382.75
8351.65
8323.23
8268.12
8249.07
8242.15
8278.02
8364.67
8466.79
8485.32
8486.8
8352.57
8297.34
8216.14
8170.22
8132.77
8117.16
8197.75
8172.81
8168.89
8169.68
8162.71
8143.56
8058.52
8027.35
8032.67
8008.86
7995.45
7990.72
7962.01
7990.12
7931.49
7935.56
7946.3
7977.13
7998.29
8047.29
7940.59
7956.7
8008.32
8061.07
8113.38
8163.54
8209.8
8250.82
8285.78
7921.37
7950.94
8112.52
8068.74
8078.47
8086.43
8090.47
8117.84
8034.72
8017.12
8053.54
8038.73
7995.5
7959.57
7944.6
7905.75
7914.26
7993.98
8093.65
8208.58
8292.93
8266.19
8195.24
8074.7
8007.04
7979.44
7986.19
7988.45
7993.96
8002.71
8035.08
8067.15
8132.45
8131.0
8199.05
8248.51
8301.27
8353.7
8406.69
8448.65
8478.4
8513.3
8540.46
8575.63
8577.24
8588.07
8566.79
8584.08
8627.26
8622.58
8599.42
8569.16
8464.96
8438.48
8408.8
8377.47
8329.72
8309.19
8289.34
8274.82
8256.31
8381.22
8479.56
8524.92
8532.54
8509.76
8502.8
8462.15
8424.53
8227.79
8170.42
8246.39
8219.35
8222.1
8244.99
8252.7
8230.55
8171.75
8135.89
8102.73
8049.62
8031.92
8059.68
8028.94
8055.87
8008.81
8013.7
7965.16
7981.65
8026.84
8077.52
8135.5
8171.12
8116.1
8173.83
8230.67
8284.42
8341.22
8386.67
8425.84
8165.22
8175.53
8252.5
8251.4
8149.75
8146.32
8153.83
8151.49
8098.47
8166.9
8091.18
8038.14
8005.7
7989.12
7969.22
7937.99
7956.45
8023.28
8091.57
8166.86
8214.26
8187.05
8103.24
8020.42
7946.17
7911.86
7933.43
7926.78
7929.07
7942.38
7974.49
8020.06
8033.29
8110.32
8171.71
8231.51
8281.77
8333.71
8383.7
8420.78
8458.87
8501.94
8534.06
8573.68
8583.77
8597.05
8604.57
8589.29
8619.06
8645.88
8623.61
8585.43
8531.45
8497.37
8455.8
8397.61
8381.81
8367.11
8359.03
8353.06
8378.09
8447.85
8524.94
8571.6
8579.46
8563.69
8550.69
8495.63
8434.11
8367.5
8298.94
8238.9
8202.13
8214.53
8260.49
8314.94
8263.75
8214.43
8187.44
8156.74
8153.29
8131.18
8102.84
8082.17
8079.69
8102.35
8032.67
8055.15
8100.64
8146.98
8104.24
8199.51
8262.39
8278.42
8251.92
8316.45
8376.85
8430.35
8475.75
8515.43
8173.59
8132.75
8148.88
8230.85
8283.17
8284.19
8278.41
8262.98
8267.71
8176.73
8089.17
8011.88
8000.17
8012.87
8001.5
7967.88
7972.99
8011.12
8041.34
8070.41
8081.24
8041.89
7995.23
7927.53
7874.52
7839.68
7834.14
7856.48
7870.55
7892.1
7930.78
7984.34
8058.66
8084.96
8151.43
8225.61
8266.52
8306.61
8369.39
8398.43
8440.93
8479.51
8526.34
8558.82
8586.14
8610.95
8621.34
8632.3
8641.27
8632.73
8622.29
8598.55
8573.35
8543.07
8526.16
8503.32
8468.03
8436.93
8441.24
8467.38
8492.58
8554.77
8602.1
8636.03
8643.62
8625.36
8599.39
8538.56
8469.48
8391.88
8310.56
8236.5
8184.8
8197.05
8241.21
8271.55
8261.72
8215.62
8177.58
8170.02
8169.7
8143.82
8124.69
8103.63
8095.7
8122.83
8062.99
8074.53
8105.08
8146.28
8196.68
8258.76
8302.02
8354.54
8417.57
8482.9
8468.42
8526.49
8560.45
8593.06
8060.82
8078.85
8099.71
8199.25
8215.93
8249.24
8311.71
8303.28
8276.22
8237.46
8125.86
7914.75
8011.46
8036.99
8030.22
7988.66
7969.34
7962.47
7964.62
7954.15
7934.5
7897.49
7852.14
7817.82
7801.09
7769.49
7739.27
7768.73
7820.09
7849.36
7895.06
7954.55
7972.62
8025.94
8140.73
8208.46
8264.19
8283.35
8352.35
8411.97
8431.99
8484.13
8535.44
8591.61
8587.47
8608.33
8652.33
8717.92
8633.8
8626.87
8614.75
8575.96
8536.61
8558.67
8570.57
8555.72
8547.28
8488.42
8562.29
8582.06
8621.35
8658.62
8692.77
8716.32
8709.27
8685.45
8646.85
8588.76
8511.22
8425.93
8338.72
8266.97
8213.42
8211.2
8230.74
8244.61
8245.58
8207.27
8197.41
8161.9
8172.11
8158.75
8142.27
8123.89
8117.38
8142.5
8083.78
8128.65
8158.83
8165.26
8214.99
8255.37
8319.81
8385.81
8450.89
8512.05
8525.26
8588.76
8618.19
8626.22
8055.13
8080.55
8109.07
8140.79
8233.38
8259.33
8287.62
8321.03
8353.15
8316.33
8214.61
8103.09
8088.93
8017.19
8055.19
8018.79
7964.77
7925.2
7877.45
7829.29
7780.44
7741.0
7736.34
7714.19
7696.21
7660.58
7671.49
7682.8
7773.3
7811.21
7864.47
7862.34
7946.19
8027.84
8134.96
8199.27
8276.74
8313.55
8366.44
8423.14
8481.81
8546.2
8610.51
8662.62
8696.3
8729.72
8746.44
8730.63
8715.33
8677.58
8662.51
8553.78
8519.77
8483.88
8520.78
8512.29
8525.64
8530.86
8566.04
8623.67
8692.11
8727.74
8753.97
8762.02
8781.91
8750.41
8704.7
8640.63
8556.04
8465.77
8376.67
8311.83
8256.85
8237.32
8233.35
8232.16
8240.78
8206.86
8207.74
8193.98
8218.23
8211.09
8209.26
8204.86
8167.41
8192.29
8143.4
8205.9
8230.45
8264.13
8281.51
8334.16
8390.09
8447.24
8503.29
8549.44
8597.26
8634.04
8686.43
8714.65
8112.01
8066.84
8098.35
8134.25
8175.21
8222.04
8381.82
8412.6
8426.28
8404.46
8303.38
8214.71
8132.45
8070.31
8089.9
8032.87
7966.09
7875.29
7787.36
7696.69
7633.65
7595.81
7577.87
7573.76
7556.99
7561.68
7573.72
7648.08
7731.06
7720.24
7795.47
7858.29
7944.41
8068.58
8132.68
8204.22
8280.69
8335.35
8385.02
8457.77
8498.87
8559.43
8618.65
8672.61
8724.71
8755.31
8768.07
8754.19
8712.31
8686.48
8652.98
8605.21
8493.79
8531.42
8528.54
8531.79
8570.13
8599.99
8632.65
8657.33
8701.25
8761.14
8827.06
8826.5
8848.8
8819.56
8758.73
8689.04
8598.78
8504.79
8436.21
8351.7
8299.17
8272.4
8255.83
8240.8
8221.89
8190.68
8199.17
8189.62
8205.86
8200.52
8206.37
8207.78
8207.62
8245.13
8204.63
8219.15
8209.56
8248.0
8292.73
8342.53
8395.8
8450.74
8505.29
8557.08
8603.56
8642.93
8676.63
8788.33
8154.42
8121.88
8085.82
8125.2
8170.76
8224.0
8385.19
8427.98
8471.86
8460.75
8357.63
8248.85
8174.82
8104.23
8093.04
8034.29
7955.44
7847.31
7706.76
7573.12
7481.76
7436.17
7438.14
7445.13
7471.48
7491.27
7532.89
7570.64
7696.82
7695.31
7768.07
7852.73
8039.02
8114.76
8168.61
8207.99
8292.71
8347.71
8407.13
8443.12
8496.43
8555.16
8617.2
8679.02
8731.89
8772.01
8769.13
8742.3
8710.79
8678.1
8624.83
8580.98
8544.27
8571.0
8552.22
8570.6
8594.42
8635.14
8651.99
8702.49
8745.63
8809.95
8875.55
8890.55
8859.71
8870.67
8802.51
8728.96
8634.54
8537.53
8466.91
8393.44
8333.85
8290.93
8264.32
8231.05
8218.03
8220.66
8192.22
8185.71
8203.79
8201.73
8209.74
8213.18
8214.77
8247.12
8275.53
8236.54
8228.7
8264.09
8305.29
8351.42
8401.23
8453.21
8505.63
8556.58
8604.19
8647.36
8686.69
8724.54
8166.38
8162.24
8138.91
8112.92
8160.95
8216.13
8279.58
8407.01
8439.73
8425.7
8347.25
8220.17
8168.2
8112.31
8050.38
8026.5
7945.48
7832.24
7651.18
7476.63
7326.58
7284.81
7318.38
7353.31
7392.47
7425.77
7483.71
7528.87
7565.85
7677.25
7759.73
7842.93
8020.9
8100.89
8196.93
8242.4
8325.58
8390.02
8389.56
8430.42
8478.52
8533.89
8596.99
8667.06
8736.28
8782.15
8762.45
8719.38
8671.79
8639.99
8598.38
8543.14
8565.22
8560.23
8550.58
8577.76
8607.52
8658.02
8672.26
8726.9
8780.25
8920.22
8936.74
8916.4
8914.48
8857.76
8832.44
8757.12
8660.2
8573.35
8458.17
8411.17
8346.91
8296.35
8261.41
8225.54
8212.4
8215.39
8208.92
8183.97
8214.32
8205.62
8205.91
8217.95
8267.15
8262.18
8269.48
8254.51
8248.99
8280.87
8318.02
8359.91
8405.64
8453.99
8503.53
8552.65
8599.83
8643.97
8684.78
8722.51
8205.2
8167.51
8152.89
8128.29
8146.67
8200.43
8257.95
8316.15
8372.13
8352.93
8251.85
8165.15
8140.89
8087.66
8037.92
7993.77
7911.42
7819.1
7622.48
7411.79
7213.78
7221.18
7266.79
7318.01
7361.38
7387.21
7442.83
7448.11
7511.96
7648.91
7737.05
7926.65
8016.85
8097.81
8174.78
8236.86
8309.25
8367.47
8368.52
8399.32
8440.67
8489.25
8547.87
8615.64
8699.17
8776.56
8721.87
8661.8
8610.23
8567.83
8541.05
8557.01
8534.63
8539.54
8538.28
8574.48
8612.67
8624.2
8677.35
8733.51
8786.17
8862.27
8954.11
8923.06
8919.26
8866.25
8854.26
8772.74
8657.1
8561.35
8478.09
8395.78
8327.24
8275.02
8248.06
8222.43
8208.83
8207.65
8206.63
8214.51
8218.53
8250.13
8253.22
8260.12
8271.84
8277.51
8284.4
8272.44
8268.79
8296.78
8329.53
8366.82
8408.05
8452.29
8498.3
8544.69
8590.05
8633.2
8673.31
8709.82
8097.7
8133.08
8174.36
8238.55
8222.81
8220.39
8232.93
8277.92
8307.79
8278.47
8187.16
8112.26
8091.5
8061.91
8026.53
7980.25
7928.59
7831.35
7666.62
7489.23
7332.44
7287.74
7300.87
7334.2
7352.72
7372.04
7390.96
7425.49
7482.24
7672.55
7751.1
7870.2
7949.06
8020.77
8107.85
8178.62
8223.92
8279.38
8302.28
8351.02
8381.91
8418.67
8464.79
8521.85
8584.32
8622.98
8603.4
8560.0
8521.91
8487.54
8449.72
8503.64
8518.84
8544.9
8578.91
8506.38
8549.24
8607.92
8666.92
8723.09
8774.0
8929.14
8942.17
8936.32
8904.13
8848.53
8784.66
8704.62
8633.02
8526.73
8476.48
8387.85
8314.1
8257.34
8235.1
8210.89
8213.47
8215.77
8205.46
8218.71
8225.94
8260.62
8260.6
8262.04
8257.54
8271.58
8282.18
8312.37
8286.42
8310.19
8338.3
8370.81
8407.39
8447.29
8489.43
8532.53
8575.26
8616.34
8654.73
8689.56
7985.6
8026.25
8073.59
8126.48
8186.65
8260.86
8309.76
8289.6
8271.84
8223.34
8202.45
8106.77
8059.72
8070.85
8039.77
7979.69
7965.09
7907.67
7780.07
7615.27
7488.89
7416.81
7399.44
7376.05
7383.06
7389.56
7387.88
7399.31
7442.98
7612.31
7701.61
7786.1
7862.96
7940.36
8012.78
8079.31
8144.05
8183.48
8205.15
8226.45
8252.48
8285.94
8353.63
8388.54
8425.11
8447.69
8432.81
8415.02
8406.34
8386.4
8357.37
8418.53
8438.53
8501.15
8547.81
8521.23
8540.46
8590.19
8649.0
8719.75
8767.84
8801.12
8885.08
8885.04
8892.56
8820.28
8756.86
8706.79
8610.54
8525.19
8457.66
8369.34
8295.66
8243.81
8215.1
8192.57
8197.65
8204.99
8220.03
8226.71
8237.25
8269.24
8275.34
8278.23
8269.28
8288.69
8296.83
8321.13
8300.12
8319.38
8342.74
8370.53
8402.57
8438.23
8476.53
8516.23
8556.02
8594.65
8630.96
8664.0
7905.84
7990.44
8040.3
8097.4
8158.93
8219.47
8277.85
8324.83
8288.96
8214.18
8174.6
8127.23
8084.71
8062.31
8039.26
8051.25
7997.06
7954.1
7851.37
7699.55
7599.8
7530.61
7507.25
7456.27
7439.14
7431.91
7405.72
7419.48
7456.31
7530.43
7615.69
7681.48
7790.99
7851.75
7901.42
7946.87
7987.31
8054.5
8075.76
8095.35
8120.92
8151.39
8180.25
8213.04
8244.62
8269.64
8282.02
8269.94
8269.92
8268.52
8310.46
8328.21
8350.43
8406.41
8500.03
8571.41
8499.55
8561.64
8617.46
8668.93
8712.59
8737.38
8833.05
8855.56
8829.18
8782.63
8716.52
8687.85
8578.12
8479.42
8431.29
8343.67
8270.72
8206.06
8189.83
8178.57
8180.38
8194.8
8217.83
8281.5
8279.37
8290.85
8278.37
8293.2
8287.05
8299.43
8306.79
8310.46
8332.36
8322.36
8341.15
8364.59
8392.57
8424.47
8459.32
8495.89
8532.91
8569.12
8603.38
8634.74
8006.12
7953.73
8006.05
8035.57
8110.92
8203.66
8264.47
8302.82
8306.65
8306.51
8155.27
8110.35
8120.47
8082.78
8152.35
8074.73
8049.56
8017.33
7899.36
7823.8
7699.75
7637.46
7611.63
7549.7
7543.04
7495.63
7464.43
7400.43
7370.94
7451.5
7544.33
7583.79
7652.64
7704.18
7743.53
7791.87
7827.06
7889.64
7901.78
7927.98
7956.1
7983.42
8013.28
8043.91
8070.74
8105.76
8127.05
8147.62
8164.27
8177.3
8213.61
8258.07
8302.19
8350.88
8401.94
8494.58
8541.9
8514.01
8576.44
8624.34
8664.09
8642.12
8667.79
8814.43
8776.44
8728.06
8664.41
8602.44
8527.08
8441.76
8355.59
8313.22
8223.75
8178.89
8152.93
8148.11
8163.26
8186.68
8250.83
8283.75
8311.2
8289.26
8297.96
8298.3
8299.15
8301.99
8309.57
8309.33
8323.56
8316.72
8331.65
8351.67
8376.53
8405.54
8437.69
8471.75
8506.44
8540.57
8573.04
8606.8
7984.27
8019.31
7997.39
8059.33
8131.79
8193.33
8269.36
8311.56
8330.87
8207.96
8123.3
8078.13
8114.33
8163.94
8161.01
8105.32
8101.63
8075.34
8006.35
7887.47
7837.1
7783.95
7633.76
7628.68
7575.15
7547.84
7498.85
7433.73
7369.13
7399.16
7459.33
7520.78
7514.66
7542.93
7565.64
7624.8
7657.03
7684.19
7729.35
7757.55
7786.63
7815.61
7843.74
7872.12
7905.96
7944.46
7984.05
8019.12
8051.89
8079.13
8116.29
8164.57
8218.54
8275.63
8332.88
8423.27
8490.0
8553.31
8509.12
8542.15
8570.36
8599.1
8637.47
8682.11
8710.84
8666.35
8630.72
8540.64
8460.56
8390.82
8311.18
8267.2
8200.57
8151.65
8133.97
8129.2
8146.95
8175.97
8234.45
8276.06
8306.39
8314.74
8308.5
8306.53
8302.76
8301.21
8301.04
8297.18
8279.05
8299.46
8309.44
8330.7
8353.92
8381.31
8411.79
8444.15
8477.16
8516.73
8551.46
8595.63
7897.58
7929.41
7973.75
8032.04
8103.19
8181.45
8255.87
8308.43
8320.01
8322.43
8103.46
8063.84
8189.5
8196.9
8210.35
8175.69
8150.34
8170.37
8068.45
8024.82
7908.05
7789.26
7748.06
7690.32
7638.6
7619.57
7527.11
7475.87
7361.4
7367.08
7362.15
7370.71
7395.79
7403.67
7411.15
7428.86
7456.11
7500.35
7530.1
7580.05
7622.36
7653.7
7683.71
7709.03
7741.87
7790.28
7844.97
7893.98
7939.34
7980.22
8042.03
8080.15
8140.3
8203.16
8264.51
8351.33
8418.22
8482.65
8505.72
8480.34
8512.39
8562.63
8610.36
8598.57
8575.75
8611.12
8545.88
8476.05
8403.62
8302.2
8264.33
8200.57
8171.93
8128.56
8117.28
8117.09
8140.67
8178.15
8249.55
8294.03
8336.64
8327.58
8314.73
8302.53
8296.06
8278.32
8267.63
8260.91
8252.63
8255.09
8258.64
8298.59
8314.29
8352.15
8382.13
8448.48
8458.85
8508.36
8541.27
8571.03
7798.51
7831.36
7906.65
7969.18
8043.45
8123.88
8198.91
8248.54
8261.97
8252.46
8284.18
8046.44
8149.35
8232.8
8248.62
8220.96
8234.76
8226.28
8125.31
8089.04
7969.43
7831.73
7797.81
7739.4
7702.8
7662.91
7602.0
7544.14
7377.81
7348.14
7323.81
7296.99
7309.56
7295.61
7268.34
7285.59
7342.69
7354.37
7387.95
7430.42
7485.59
7523.12
7550.84
7566.56
7598.0
7669.29
7742.84
7805.0
7855.85
7899.95
7946.6
8006.74
8071.54
8136.79
8199.66
8258.89
8326.89
8409.77
8445.69
8483.53
8524.99
8529.94
8528.53
8517.41
8597.9
8542.63
8482.18
8417.29
8349.39
8262.77
8197.61
8157.62
8115.04
8101.49
8093.85
8111.43
8143.3
8221.24
8258.41
8291.69
8319.11
8320.31
8309.94
8295.35
8282.33
8269.45
8263.34
8232.36
8212.29
8220.07
8227.58
8236.34
8288.0
8305.67
8390.73
8395.61
8455.61
8490.73
8523.1
8552.13
7815.06
7839.23
7879.26
7938.12
7978.71
8067.54
8154.06
8222.64
8265.0
8287.44
8302.85
8030.26
8179.36
8256.62
8271.66
8261.6
8277.49
8221.89
8175.56
7988.06
7901.23
7892.86
7823.28
7792.95
7751.61
7693.42
7643.33
7566.92
7441.35
7345.93
7302.67
7253.27
7246.23
7159.93
7155.28
7158.69
7196.57
7221.08
7273.31
7331.53
7388.43
7428.79
7456.29
7493.48
7537.53
7600.11
7669.29
7732.12
7786.34
7833.86
7881.54
7947.93
8013.21
8077.94
8140.1
8209.35
8259.32
8331.22
8384.93
8408.95
8450.44
8454.77
8452.54
8442.43
8534.21
8483.64
8428.55
8369.04
8305.82
8211.57
8186.15
8125.6
8079.99
8078.22
8088.02
8117.13
8156.16
8234.5
8267.45
8295.31
8303.45
8306.91
8299.91
8282.07
8269.75
8250.83
8227.24
8203.01
8184.38
8178.03
8179.41
8184.18
8190.45
8237.74
8301.88
8387.94
8424.68
8457.3
8487.01
8580.55
7826.15
7841.88
7874.1
7926.85
7973.72
8058.18
8141.98
8212.48
8238.81
8277.4
8306.73
8354.27
8568.36
8335.39
8405.78
8335.01
8312.81
8144.69
8083.31
8017.03
8071.26
7991.19
7919.97
7831.06
7781.42
7740.77
7659.56
7592.51
7465.37
7379.97
7298.25
7193.01
7147.71
7098.83
7084.26
7075.67
7084.4
7137.12
7203.73
7271.83
7335.91
7390.63
7419.37
7463.55
7510.1
7564.83
7623.57
7682.39
7736.47
7785.81
7835.43
7883.87
7948.24
8026.59
8086.62
8148.88
8210.82
8235.74
8326.66
8351.65
8395.11
8400.21
8397.8
8524.8
8482.75
8437.42
8388.24
8334.74
8251.41
8189.15
8160.58
8096.2
8056.72
8068.43
8096.27
8137.68
8221.01
8256.59
8284.45
8304.13
8317.79
8317.1
8307.07
8263.35
8257.4
8233.1
8204.44
8176.38
8156.99
8151.79
8157.99
8169.43
8181.83
8176.61
8130.04
8240.3
8366.02
8413.62
8528.12
8565.0
7811.71
7824.98
7854.83
7905.43
7975.25
8056.99
8138.63
8208.7
8260.93
8287.56
8342.69
8365.88
8581.06
8446.4
8409.13
8459.24
8191.19
8186.68
8118.45
8138.88
8068.09
7987.25
7908.02
7839.03
7737.06
7737.38
7692.99
7606.55
7513.86
7441.35
7316.83
7265.75
7188.19
7154.78
7087.11
7074.83
7094.36
7125.5
7185.03
7251.18
7316.36
7401.06
7472.54
7455.26
7504.11
7549.32
7603.49
7650.91
7696.67
7745.36
7776.87
7834.06
7895.54
7957.79
8017.81
8074.16
8146.23
8181.86
8274.66
8287.31
8333.34
8338.7
8338.19
8482.58
8445.33
8376.68
8327.15
8286.83
8242.25
8186.37
8157.48
8080.42
8027.96
8084.87
8137.35
8189.96
8258.91
8291.24
8312.95
8324.89
8332.36
8326.13
8345.51
8270.33
8254.05
8226.22
8193.79
8162.85
8142.73
8139.28
8138.23
8151.48
8119.21
8139.98
8148.0
8153.94
8157.87
8366.69
8474.19
8513.83
7813.19
7827.81
7858.87
7910.18
7979.99
8060.42
8139.96
8208.8
8261.89
8298.59
8351.83
8372.6
8653.92
8637.09
8513.53
8241.96
8248.66
8271.19
8131.43
8161.26
8035.77
7969.49
7892.28
7826.32
7777.17
7709.21
7650.16
7594.65
7506.58
7387.78
7333.44
7286.61
7210.63
7183.32
7155.95
7141.7
7133.54
7161.16
7208.12
7265.33
7324.6
7423.23
7491.1
7558.73
7512.59
7552.87
7598.13
7643.5
7600.94
7641.39
7684.08
7801.71
7854.12
7907.14
7963.16
8016.18
8054.58
8150.87
8256.68
8274.59
8231.59
8228.62
8245.11
8414.31
8370.44
8342.05
8312.29
8280.34
8245.41
8206.87
8164.29
8121.76
8103.69
8146.36
8202.19
8290.22
8331.65
8347.24
8362.74
8368.08
8357.04
8379.35
8363.69
8283.18
8261.39
8233.18
8201.13
8171.34
8144.84
8138.98
8110.44
8126.77
8139.03
8150.25
8159.33
8166.02
8170.41
8278.22
8286.62
8422.88
7830.12
7849.72
7885.84
7941.59
8014.6
8095.42
8172.01
8236.48
8285.66
8319.42
8339.96
8389.86
8665.74
8722.69
8439.68
8440.95
8251.33
8249.57
8043.08
8054.7
7988.93
7982.86
7919.64
7852.03
7782.45
7714.32
7621.72
7455.64
7428.48
7389.07
7343.06
7304.08
7286.34
7251.76
7232.4
7192.73
7200.87
7241.66
7269.55
7304.43
7392.85
7453.46
7516.22
7579.51
7583.34
7633.74
7661.64
7652.28
7691.5
7733.83
7766.98
7869.26
7922.42
7968.28
7990.64
8034.47
8075.4
8072.73
8121.63
8184.43
8210.85
8214.48
8244.12
8269.49
8353.05
8331.03
8309.2
8287.11
8264.36
8238.2
8216.32
8194.45
8177.4
8241.37
8297.88
8373.74
8405.5
8426.7
8414.71
8410.17
8430.01
8411.75
8412.14
8305.64
8280.44
8254.85
8223.84
8183.6
8153.81
8140.01
8141.2
8149.3
8159.73
8169.72
8177.94
8183.93
8187.66
8323.06
8331.97
8338.15
7859.13
7885.94
7929.69
7992.99
8072.75
8157.05
8231.46
8289.95
8331.63
8357.47
8370.69
8375.4
8698.65
8425.15
8405.14
8439.91
8400.38
8184.34
8126.96
8159.64
8202.97
8108.54
7892.95
7826.67
7756.75
7686.32
7596.36
7440.9
7398.45
7385.3
7348.03
7324.87
7319.15
7301.87
7284.76
7279.62
7269.53
7302.19
7346.65
7393.62
7418.11
7453.58
7499.6
7543.12
7587.69
7601.35
7600.77
7635.23
7674.34
7707.43
7741.83
7847.54
7893.76
7941.21
7982.12
7995.1
8034.5
8071.04
8125.32
8116.83
8191.06
8214.39
8220.16
8370.12
8351.96
8328.24
8314.85
8303.49
8294.44
8285.39
8289.41
8293.54
8316.14
8366.32
8444.96
8493.62
8521.75
8534.33
8528.25
8496.22
8489.26
8471.25
8448.69
8332.46
8314.73
8302.78
8247.75
8216.48
8193.88
8182.07
8179.86
8183.87
8190.61
8197.59
8203.41
8204.31
8321.99
8352.68
8360.56
8365.73
7895.61
7930.04
7981.79
8053.19
8141.06
8231.9
8308.31
8363.32
8396.09
8409.79
8411.0
8405.89
8400.6
8402.63
8399.86
8364.59
8363.66
8396.68
8369.87
8318.14
8295.58
8263.66
8219.75
8161.54
7912.31
7803.37
7660.7
7548.48
7374.23
7394.92
7378.36
7373.24
7343.33
7339.42
7340.29
7344.04
7356.06
7366.73
7412.1
7447.3
7456.82
7481.5
7509.72
7536.81
7544.37
7559.54
7588.71
7623.1
7653.57
7687.04
7710.8
7817.16
7863.61
7904.19
7959.95
7992.28
7996.9
8098.88
8085.55
8077.99
8109.61
8207.15
8215.34
8362.17
8349.31
8337.23
8330.93
8328.92
8332.3
8320.33
8366.16
8396.71
8443.69
8505.76
8567.99
8607.26
8622.88
8623.66
8604.42
8569.67
8550.67
8529.88
8514.6
8412.75
8355.51
8323.58
8292.52
8265.41
8244.95
8232.38
8227.04
8222.61
8216.78
8212.55
8208.75
8204.73
8369.62
8408.1
8415.95
8421.41
7935.13
7976.15
8034.41
8111.93
8205.93
8304.62
8390.16
8447.89
8471.69
8469.52
8455.21
8264.16
8378.05
8420.92
8358.43
8339.89
8359.64
8331.02
8348.76
8253.45
8229.7
8197.28
8152.15
8102.42
8019.67
7918.13
7653.88
7594.11
7470.7
7348.45
7377.62
7389.25
7375.87
7385.37
7394.36
7407.61
7425.33
7433.47
7476.27
7483.77
7491.87
7506.71
7523.73
7528.19
7506.75
7520.77
7591.69
7608.89
7639.29
7660.45
7682.75
7709.2
7827.76
7878.77
7925.65
7966.13
7924.36
8058.16
8074.37
8057.81
8082.65
8118.89
8214.39
8357.33
8347.23
8343.21
8343.96
8350.79
8365.41
8388.19
8422.02
8476.27
8546.43
8615.62
8682.57
8708.81
8704.04
8697.12
8685.86
8654.06
8604.8
8599.88
8594.04
8561.49
8484.48
8448.36
8399.94
8368.6
8339.79
8314.93
8294.52
8278.12
8269.16
8255.39
8243.04
8409.68
8414.2
8423.81
8431.52
8484.05
7974.15
8019.9
8082.27
8163.08
8260.72
8367.01
8464.94
8529.01
8543.5
8425.36
8347.8
8277.29
8327.58
8390.08
8305.91
8350.99
8315.47
8280.86
8273.56
8217.36
8154.87
8135.69
8093.4
8031.1
7942.07
7826.1
7698.47
7561.7
7458.7
7373.92
7379.95
7409.31
7436.59
7436.07
7451.68
7466.97
7485.36
7506.51
7502.47
7510.83
7517.42
7520.13
7518.86
7496.91
7508.4
7517.93
7531.38
7544.11
7635.32
7637.87
7661.19
7686.42
7800.76
7836.87
7883.15
7977.57
8014.13
8068.53
8089.22
8079.44
8073.28
8099.55
8154.0
8264.19
8347.97
8348.59
8354.75
8368.09
8373.53
8423.58
8470.87
8534.63
8614.18
8688.89
8736.96
8777.08
8767.0
8749.85
8727.0
8739.44
8753.46
8653.14
8670.2
8609.45
8536.68
8506.0
8472.98
8438.98
8415.75
8373.03
8345.77
8321.83
8300.96
8282.63
8266.3
8449.6
8459.08
8467.58
8507.23
8512.36
8010.15
8058.41
8122.05
8202.75
8299.83
8407.68
8510.5
8577.15
8506.21
8439.33
8359.25
8349.41
8318.34
8305.12
8300.55
8283.44
8254.88
8212.78
8195.05
8128.25
8078.21
8050.94
8017.45
7963.17
7875.11
7675.0
7547.05
7419.76
7340.8
7333.97
7357.19
7444.86
7475.61
7493.74
7511.46
7525.82
7539.25
7532.83
7514.36
7536.0
7530.33
7519.48
7512.95
7516.68
7515.11
7525.71
7523.95
7531.28
7540.01
7623.55
7641.03
7665.35
7773.84
7810.04
7909.85
7958.6
7999.4
8056.85
8106.21
8102.45
8066.92
8096.04
8139.37
8248.22
8347.68
8351.52
8361.06
8378.03
8383.71
8442.14
8494.79
8559.57
8634.61
8708.08
8772.38
8800.07
8796.08
8784.31
8785.48
8773.46
8769.67
8700.62
8682.68
8646.35
8605.39
8544.17
8515.12
8485.72
8460.1
8417.62
8385.79
8357.03
8331.44
8465.87
8448.21
8455.08
8462.33
8469.15
8474.88
8463.41
8041.64
8090.11
8152.08
8228.63
8318.87
8417.49
8490.59
8510.5
8488.99
8426.15
8390.11
8338.39
8271.2
8255.8
8240.34
8214.95
8185.87
8070.01
8102.71
8006.89
7973.09
7949.23
7934.15
7829.55
7764.05
7664.24
7548.13
7442.54
7396.34
7408.85
7505.06
7559.92
7600.5
7615.17
7632.03
7638.81
7658.45
7529.86
7527.75
7566.54
7555.66
7545.75
7521.04
7528.45
7530.09
7531.34
7533.18
7537.07
7537.46
7616.18
7627.07
7646.14
7747.51
7834.51
7890.73
7939.64
7983.18
8059.98
8100.86
8133.92
8146.14
8145.47
8169.83
8233.71
8302.74
8311.04
8324.93
8346.06
8388.43
8443.51
8494.9
8554.05
8612.05
8684.25
8748.87
8787.35
8798.39
8799.16
8793.89
8793.09
8782.46
8741.13
8711.49
8675.75
8633.62
8572.71
8544.42
8529.75
8491.56
8444.09
8398.21
8355.68
8317.14
8446.1
8485.09
8451.38
8458.97
8582.76
8493.51
8498.28
8068.06
8114.75
8172.54
8241.65
8320.31
8373.42
8428.77
8453.21
8427.69
8402.15
8359.22
8256.75
8221.16
8177.53
8146.43
8109.96
8049.51
8009.05
7968.45
7922.12
7850.63
7821.43
7797.31
7802.97
7755.38
7671.05
7580.59
7511.16
7503.64
7559.34
7621.18
7658.25
7690.73
7708.01
7721.67
7725.08
7756.38
7672.18
7546.36
7594.28
7537.61
7538.39
7549.52
7547.31
7543.98
7539.85
7536.28
7535.52
7539.71
7539.71
7614.31
7628.29
7711.86
7810.34
7856.53
7921.62
7982.3
8035.97
8078.75
8121.36
8135.88
8161.89
8166.64
8160.04
8204.96
8312.55
8323.36
8341.05
8367.19
8406.84
8455.39
8520.65
8580.45
8657.66
8714.82
8755.19
8777.64
8787.5
8790.27
8788.16
8766.21
8768.17
8733.54
8698.53
8654.02
8582.03
8567.42
8603.83
8539.88
8484.17
8432.39
8385.87
8345.24
8540.47
8561.11
8568.5
8576.13
8587.83
8589.65
8593.73
8089.61
8133.11
8185.23
8259.9
8286.78
8336.05
8373.34
8387.71
8370.17
8348.95
8292.1
8258.35
8171.21
8129.89
8089.54
8047.77
7993.46
7947.94
7882.87
7819.84
7715.07
7661.11
7731.47
7757.63
7736.88
7674.53
7615.62
7581.33
7601.54
7673.35
7668.12
7757.87
7785.75
7805.24
7805.34
7778.56
7744.0
7735.39
7773.31
7645.33
7631.93
7581.34
7576.13
7569.64
7561.3
7523.75
7503.78
7506.19
7502.48
7505.64
7505.46
7519.23
7667.85
7768.38
7840.31
7890.14
7966.54
8021.09
8066.28
8112.79
8135.21
8166.63
8160.08
8165.17
8191.67
8307.49
8316.41
8332.7
8352.83
8380.38
8424.1
8479.47
8551.18
8629.58
8677.61
8720.72
8749.67
8766.87
8771.87
8742.25
8745.34
8741.58
8746.56
8717.5
8663.71
8610.18
8566.19
8598.68
8584.27
8541.83
8497.35
8458.33
8425.28
8535.83
8553.58
8576.0
8582.03
8606.51
8599.9
8596.57
8106.97
8146.56
8187.15
8224.72
8263.06
8297.37
8282.15
8309.0
8307.29
8298.31
8269.88
8175.7
8113.27
8072.9
8030.49
7985.16
7938.37
7890.11
7805.63
7735.87
7668.55
7649.32
7677.85
7704.44
7693.18
7662.22
7639.03
7653.86
7700.7
7771.55
7866.55
7885.29
7906.29
7915.03
7896.74
7841.36
7832.3
7802.15
7858.4
7704.94
7683.69
7666.62
7638.85
7611.35
7577.56
7561.13
7536.35
7513.82
7491.96
7490.03
7518.87
7517.1
7630.48
7669.44
7811.86
7898.81
7949.68
8006.27
8055.81
8100.67
8120.92
8166.1
8180.0
8202.63
8198.84
8233.7
8309.79
8319.55
8336.11
8355.57
8384.02
8443.53
8520.1
8595.62
8661.91
8687.68
8718.56
8733.27
8747.53
8714.05
8720.74
8831.01
8807.52
8715.04
8663.1
8650.06
8656.81
8677.16
8634.89
8564.97
8503.75
8455.71
8418.11
8527.75
8561.36
8583.84
8593.23
8613.83
8617.3
8634.9
8161.04
8156.68
8183.51
8211.93
8239.42
8212.53
8244.52
8251.45
8263.63
8270.22
8176.73
8104.35
8055.47
8015.35
7971.8
7924.38
7885.67
7836.62
7736.51
7665.96
7634.7
7619.99
7626.7
7650.16
7655.07
7658.98
7675.08
7719.23
7775.27
7860.21
7959.58
8010.42
8015.06
8022.41
7993.17
7969.21
7934.25
7989.19
7938.83
7728.55
7723.83
7708.29
7685.98
7656.85
7620.99
7589.07
7579.26
7542.28
7523.75
7516.93
7521.19
7521.85
7638.92
7680.03
7731.04
7876.42
7941.37
7992.13
8035.54
8080.95
8126.7
8148.09
8189.09
8210.91
8233.65
8236.93
8266.5
8307.55
8317.71
8333.85
8369.95
8426.55
8497.54
8564.81
8626.37
8684.0
8742.18
8772.98
8752.81
8683.18
8782.02
8839.15
8802.94
8765.1
8722.05
8680.77
8719.8
8787.63
8672.07
8573.54
8500.18
8446.59
8406.63
8550.79
8560.46
8592.77
8604.78
8609.58
8633.04
8637.73
8138.93
8157.85
8178.38
8199.15
8218.14
8189.81
8198.5
8217.7
8255.7
8232.0
8109.92
8034.92
7999.51
7959.6
7915.5
7948.12
7836.13
7787.04
7672.82
7628.3
7621.19
7603.59
7599.74
7644.24
7657.04
7682.01
7723.48
7765.46
7848.87
7941.22
8047.12
8152.66
8146.55
8112.97
8115.77
8089.94
8007.7
8039.02
7998.95
7908.01
7761.98
7756.31
7800.17
7760.71
7701.49
7642.97
7590.55
7549.47
7532.73
7529.34
7534.28
7535.66
7655.64
7706.42
7751.41
7813.27
7932.51
8000.91
8046.7
8086.22
8150.81
8165.11
8192.07
8220.87
8244.04
8260.71
8278.24
8309.08
8319.85
8336.61
8370.09
8423.12
8495.03
8556.58
8609.45
8650.93
8704.15
8692.84
8743.98
8773.45
8861.92
8829.1
8794.18
8769.84
8727.03
8669.12
8692.02
8696.32
8632.2
8548.46
8479.43
8427.67
8389.2
8528.28
8532.13
8579.69
8591.92
8652.61
8638.59
8640.35
8143.39
8157.92
8173.07
8187.67
8147.75
8153.33
8174.86
8212.04
8210.44
8105.82
8011.81
7982.18
7947.19
7907.4
7863.14
7908.16
7790.33
7741.24
7784.71
7625.44
7661.44
7640.55
7631.63
7637.04
7659.25
7700.86
7762.52
7814.86
7915.42
8016.54
8128.09
8234.57
8219.32
8234.81
8202.12
8164.58
8089.52
8106.49
8044.65
7972.76
7814.98
7874.18
7830.75
7781.47
7727.84
7670.43
7619.03
7580.37
7561.1
7555.53
7550.99
7558.82
7680.78
7733.12
7777.63
7823.48
7914.3
7959.94
8007.4
8062.85
8162.33
8197.53
8208.48
8232.16
8253.82
8275.37
8291.55
8318.43
8333.01
8352.66
8389.23
8433.48
8488.17
8556.51
8608.28
8642.37
8641.82
8674.1
8707.58
8729.66
8801.86
8821.08
8809.46
8766.46
8737.42
8695.98
8626.21
8607.57
8560.35
8499.13
8442.9
8398.6
8365.41
8494.86
8548.24
8565.59
8635.68
8631.35
8640.08
8647.42
8146.98
8157.71
8168.41
8117.29
8131.27
8139.28
8187.02
8189.03
8204.14
8049.8
7964.46
7934.62
7899.65
7859.94
7815.78
7853.71
7748.99
7699.86
7717.39
7688.08
7663.15
7646.34
7641.78
7653.62
7685.65
7739.99
7815.68
7908.28
7981.76
8096.13
8200.23
8329.38
8382.83
8339.82
8326.49
8199.45
8215.81
8148.66
8084.0
8122.76
8065.93
7907.14
7866.05
7819.12
7768.21
7708.59
7660.42
7622.34
7601.74
7593.04
7584.86
7590.42
7725.83
7766.15
7809.03
7853.53
7957.33
8002.46
8045.38
8108.77
8144.0
8185.94
8229.81
8250.01
8267.6
8300.9
8324.93
8338.98
8351.55
8380.25
8412.78
8455.99
8501.08
8564.54
8609.23
8615.82
8637.61
8671.3
8698.31
8686.95
8797.41
8796.8
8790.76
8763.85
8713.66
8675.72
8637.08
8534.01
8491.3
8441.29
8395.44
8360.56
8397.49
8494.23
8524.28
8616.03
8610.46
8628.49
8644.89
8655.3
8150.27
8157.77
8096.43
8106.6
8111.9
8167.85
8171.11
8170.53
8054.21
7948.4
7923.03
7892.66
7857.54
7817.94
7774.12
7791.13
7712.88
7801.45
7719.45
7695.45
7676.61
7666.54
7669.45
7689.72
7730.96
7794.72
7879.33
7979.69
8046.58
8163.24
8265.4
8406.69
8450.08
8461.54
8403.52
8264.41
8268.71
8196.95
8210.76
8139.78
8086.78
7912.6
7878.14
7859.22
7811.52
7763.87
7706.82
7669.34
7648.57
7629.18
7625.77
7628.67
7636.12
7804.22
7844.58
7886.86
8003.45
8044.21
8087.75
8151.06
8185.24
8218.32
8232.19
8269.04
8293.32
8319.75
8342.62
8357.39
8379.66
8411.88
8442.71
8477.34
8512.21
8549.86
8613.62
8618.52
8633.19
8666.07
8694.19
8695.42
8778.23
8752.51
8733.94
8707.82
8682.99
8656.59
8602.98
8535.7
8464.73
8386.89
8337.85
8341.66
8380.29
8489.73
8558.54
8571.26
8600.82
8629.68
8650.93
8664.03
8153.61
8083.25
8089.85
8092.19
8154.83
8158.02
8158.53
8173.74
7983.12
7913.91
7887.41
7856.45
7821.17
7781.78
7738.56
7837.76
7796.05
7784.45
7730.07
7712.38
7700.81
7698.77
7710.16
7738.86
7787.84
7858.04
7947.47
8051.04
8160.83
8223.13
8367.92
8449.71
8523.59
8516.56
8457.21
8312.97
8366.43
8296.72
8203.62
8134.37
8085.56
7948.35
7915.49
7878.36
7839.43
7802.16
7762.12
7736.33
7697.6
7676.26
7671.08
7671.5
7676.15
7845.72
7883.0
8000.29
8057.48
8090.65
8159.82
8197.6
8231.21
8259.98
8264.74
8296.17
8312.28
8343.89
8373.14
8383.43
8417.05
8445.22
8470.0
8497.66
8529.32
8561.91
8591.18
8623.22
8652.72
8662.43
8691.39
8678.96
8747.51
8724.31
8698.48
8694.81
8654.01
8628.17
8570.73
8501.92
8425.18
8331.15
8258.48
8297.81
8400.32
8468.57
8520.72
8552.38
8596.45
8632.38
8658.24
8673.27
8076.19
8089.44
8079.17
8147.4
8149.87
8150.49
8148.71
8168.94
7908.55
7884.95
7857.41
7825.94
7790.6
7751.59
7756.27
7819.87
7800.7
7794.91
7748.03
7737.13
7733.18
7739.24
7758.68
7794.68
7849.42
7923.31
8014.28
8117.57
8225.96
8346.04
8529.24
8554.08
8552.54
8537.0
8521.17
8441.08
8380.77
8307.94
8215.78
8155.17
8101.08
7966.27
7935.64
7913.68
7875.6
7840.66
7812.7
7782.65
7758.44
7750.87
7718.6
7717.01
7719.06
7889.1
7922.98
7859.15
7987.38
8040.05
8103.57
8177.72
8219.13
8259.44
8286.88
8316.27
8352.35
8381.04
8400.86
8439.72
8445.81
8470.01
8487.85
8528.51
8559.16
8572.36
8602.56
8628.47
8655.44
8686.27
8664.28
8681.71
8729.27
8730.68
8715.96
8691.95
8657.9
8612.83
8560.19
8487.91
8401.44
8295.12
8149.78
8253.99
8361.6
8438.83
8481.86
8540.75
8593.17
8636.16
8666.3
8682.07
8084.65
8071.82
8144.65
8146.17
8146.41
8144.91
8159.25
7959.52
7886.09
7861.16
7832.78
7800.94
7765.71
7727.26
7662.41
7825.29
7810.89
7814.69
7771.64
7767.45
7770.73
7784.14
7810.43
7852.03
7910.43
7985.59
8075.46
8175.81
8275.99
8386.84
8567.81
8611.95
8614.49
8581.73
8551.03
8430.76
8380.79
8315.72
8255.65
8168.28
8110.54
8009.63
7968.99
7932.88
7895.49
7864.25
7845.38
7823.83
7805.81
7799.99
7766.91
7763.74
7763.47
7822.12
7843.32
7870.94
8016.32
8061.16
8150.07
8199.57
8246.63
8290.79
8320.38
8338.83
8365.81
8411.13
8438.48
8476.21
8492.16
8512.22
8534.07
8534.63
8538.62
8564.58
8592.49
8647.91
8687.0
8702.35
8720.32
8675.9
8732.8
8726.68
8711.85
8687.81
8654.19
8609.86
8553.73
8485.48
8406.99
8316.97
8255.25
8278.32
8343.27
8408.72
8464.52
8528.94
8588.79
8639.32
8673.72
8688.42
8069.23
8145.65
8146.23
8145.88
8144.26
8159.63
8155.68
7891.29
7868.2
7842.21
7813.21
7781.2
7746.25
7763.02
7660.51
7835.16
7825.47
7834.52
7799.05
7801.06
7810.75
7830.32
7861.93
7907.34
7967.45
8041.89
8128.67
8224.09
8335.68
8577.4
8614.31
8589.62
8597.44
8583.79
8499.96
8390.62
8331.02
8295.82
8245.54
8193.75
8150.24
8051.14
7995.18
7968.47
7919.14
7883.74
7874.21
7864.1
7861.88
7848.55
7845.6
7698.43
7676.1
7830.21
7848.13
7994.79
8045.6
8098.51
8168.47
8220.42
8265.59
8299.66
8358.2
8381.48
8415.19
8443.8
8453.92
8490.95
8501.71
8513.91
8528.04
8544.53
8538.97
8567.42
8608.26
8633.61
8670.36
8682.55
8695.24
8709.48
8751.57
8741.17
8718.23
8681.8
8650.25
8608.97
8556.75
8494.39
8428.75
8357.95
8321.35
8320.31
8352.17
8394.68
8446.17
8512.06
8577.83
8637.47
8677.41
8687.95
8149.54
8149.29
8148.34
8146.42
8143.26
8164.92
7955.44
7878.8
7854.56
7827.78
7798.39
7766.39
7731.9
7676.63
7663.5
7848.48
7843.28
7853.74
7828.59
7836.02
7851.07
7875.47
7910.86
7958.43
8018.64
8090.86
8130.06
8241.79
8231.42
8534.67
8568.64
8579.27
8583.08
8511.69
8448.46
8372.52
8321.36
8270.35
8221.05
8185.73
8174.27
8070.59
8040.11
7998.7
7948.46
7889.54
7911.86
7917.73
7923.58
7787.38
7725.62
7696.25
7682.18
7829.3
7885.49
8011.88
8067.74
8115.63
8178.63
8225.23
8298.43
8343.29
8387.6
8424.65
8442.72
8464.38
8480.48
8492.53
8527.99
8534.64
8543.08
8553.78
8567.0
8553.67
8602.05
8605.8
8641.04
8659.29
8688.88
8695.87
8715.4
8706.07
8686.46
8657.46
8620.68
8572.4
8518.17
8539.49
8436.36
8396.05
8338.63
8335.14
8342.45
8383.35
8430.23
8482.68
8549.53
8619.48
8670.25
8669.76
8154.65
8153.16
8150.91
8147.69
8162.41
8158.18
7892.95
7869.96
7844.85
7817.53
7787.95
7756.16
7777.15
7680.53
7670.49
7864.32
7863.2
7877.97
7858.85
7870.82
7890.11
7918.06
7955.85
8004.23
8021.2
8077.84
8040.9
8128.89
8480.55
8517.16
8535.29
8564.07
8562.06
8450.08
8407.62
8356.01
8310.21
8265.0
8221.34
8179.66
8153.41
8079.36
8070.82
8043.22
7997.88
7973.79
7975.74
7987.41
7836.4
7782.48
7726.13
7736.63
7727.9
7863.65
7979.29
8023.41
8069.02
8149.34
8205.35
8259.67
8307.26
8365.38
8413.72
8460.77
8464.9
8496.9
8551.69
8508.99
8549.25
8550.47
8553.23
8558.06
8565.29
8575.05
8587.27
8608.01
8599.64
8635.28
8658.35
8662.53
8676.32
8666.47
8647.31
8612.5
8578.51
8537.68
8489.78
8504.03
8419.83
8391.72
8360.47
8386.43
8391.88
8375.1
8429.71
8461.94
8496.66
8554.93
8636.34
8600.24
8159.77
8167.31
8152.31
8159.46
8171.44
7966.62
7888.35
7864.49
7838.77
7811.13
7781.56
7750.13
7697.39
7894.58
7898.79
7905.18
7951.25
7908.8
8062.77
8081.73
8158.26
8188.86
8205.33
7991.42
8027.3
7974.0
8047.08
8424.47
8473.76
8501.46
8551.99
8572.9
8560.59
8481.02
8403.03
8349.0
8309.74
8265.53
8228.82
8193.35
8159.07
8125.55
8113.98
8108.31
8088.3
8069.22
7930.97
7886.17
7837.33
7789.15
7754.18
7747.65
7719.81
7847.04
7983.5
8038.12
8090.81
8148.07
8220.93
8245.92
8384.02
8407.41
8443.21
8489.84
8519.19
8531.65
8544.83
8577.42
8593.62
8560.47
8557.82
8556.91
8558.12
8561.67
8567.74
8572.78
8568.2
8595.23
8615.42
8616.07
8627.84
8607.15
8588.78
8563.81
8533.01
8506.33
8451.76
8377.6
8431.72
8443.87
8416.67
8404.09
8399.86
8402.15
8405.29
8414.06
8424.58
8422.83
8438.33
8462.27
8281.51
8171.32
8167.04
8180.7
8167.91
7909.57
7886.63
7862.13
7836.02
7808.25
7778.85
7992.33
7955.04
7957.7
7980.94
7941.85
7945.24
7952.73
8113.58
8136.11
7958.14
7989.93
8028.11
8119.23
8199.87
7909.57
8081.6
8420.96
8500.16
8561.88
8564.18
8536.44
8577.84
8545.35
8429.81
8398.06
8323.41
8278.7
8249.8
8228.15
8300.02
8285.03
8263.56
8238.78
8170.35
8100.88
8074.73
8006.32
7910.84
7842.95
7771.64
7721.96
7700.47
7815.12
7963.02
8098.86
8150.5
8215.38
8270.38
8325.8
8418.71
8460.38
8496.85
8499.26
8530.54
8545.35
8574.97
8605.08
8602.14
8595.18
8567.37
8550.21
8545.55
8546.67
8546.08
8542.36
8527.83
8533.58
8560.62
8556.91
8556.06
8537.64
8525.65
8504.07
8487.18
8486.62
8399.57
8350.61
8331.6
8458.35
8431.53
8414.02
8401.49
8391.89
8378.62
8370.69
8324.31
8291.58
8234.98
8328.28
8355.22
8369.93
8360.15
8313.25
8293.26
8294.04
8292.93
8289.72
8284.21
8015.49
8008.84
7992.03
7924.25
7911.84
7974.3
7938.69
7951.13
7967.06
7987.07
8011.76
8014.02
8045.84
8082.7
8152.33
8443.66
8487.34
8525.86
8716.32
8523.88
8547.66
8545.17
8596.09
8549.46
8467.14
8439.96
8414.22
8372.11
8328.23
8239.52
8253.48
8280.82
8342.05
8326.92
8309.88
8231.07
8172.2
8119.98
8066.14
7994.32
7955.27
7912.76
7894.97
7937.7
7937.72
8026.89
8071.15
8125.5
8222.01
8259.9
8324.46
8396.51
8459.89
8489.37
8549.96
8533.59
8534.15
8563.81
8626.93
8603.03
8592.76
8581.61
8570.75
8559.58
8549.44
8518.59
8508.1
8498.43
8475.42
8498.48
8487.83
8478.77
8460.32
8440.01
8443.65
8452.52
8375.67
8334.24
8309.74
8281.79
8285.95
8439.75
8418.53
8399.8
8397.85
8374.85
8340.05
8277.5
8244.94
8232.12
8278.85
8439.8
8405.71
8345.15
8356.93
8378.58
8382.14
8361.34
8352.82
8222.77
8221.78
8219.56
8216.0
8211.0
7992.33
7984.61
8011.39
8027.55
8046.95
8070.0
8070.21
8100.84
8101.27
8166.16
8444.38
8484.07
8573.72
8598.77
8615.14
8686.73
8530.29
8602.05
8488.32
8468.0
8448.27
8431.46
8422.19
8374.14
8254.77
8294.46
8365.32
8422.0
8398.64
8387.76
8370.63
8272.82
8217.05
8159.28
8075.88
7982.99
7937.38
7948.47
7919.21
7903.97
7876.64
8099.37
8033.86
8065.36
8175.85
8236.03
8309.36
8365.0
8416.87
8482.86
8546.85
8528.65
8556.34
8556.75
8622.74
8565.48
8583.92
8571.8
8556.08
8540.37
8524.93
8509.95
8469.39
8452.22
8420.53
8432.72
8449.44
8425.39
8378.16
8359.53
8396.38
8330.49
8297.82
8280.37
8262.73
8246.07
8252.29
8247.6
8419.57
8420.15
8395.1
8367.99
8335.99
8267.16
8249.41
8249.85
8280.55
8443.45
8437.89
8446.5
8454.1
8460.59
8465.89
8433.68
8286.5
8291.83
8249.32
8249.07
8247.64
8058.5
8020.52
8045.14
8060.98
8079.5
8100.99
8125.73
8153.97
8358.98
8433.15
8452.62
8520.07
8574.84
8597.18
8602.12
8602.35
8773.44
8745.73
8793.9
8463.73
8445.09
8427.71
8414.18
8375.0
8301.43
8314.23
8435.62
8452.22
8446.21
8425.73
8432.1
8362.7
8277.83
8214.79
8149.41
8072.8
8012.27
7948.69
7881.97
7840.39
7834.7
7835.14
7990.19
8092.67
8035.54
8104.22
8227.14
8292.25
8350.32
8400.79
8444.49
8504.37
8563.22
8536.72
8575.57
8624.69
8630.45
8567.51
8556.55
8537.79
8518.22
8498.08
8477.54
8456.76
8404.19
8369.9
8377.37
8366.62
8348.29
8323.81
8312.4
8312.29
8250.4
8267.74
8265.66
8263.45
8228.86
8216.24
8214.93
8448.09
8422.19
8396.91
8369.6
8340.15
8307.05
8268.76
8274.44
8297.18
8447.08
8457.92
8467.88
8476.87
8484.78
8491.55
8427.97
8317.07
8318.73
8389.7
8389.39
8327.2
8299.59
8304.99
8197.74
8216.38
8237.09
8260.06
8312.28
8350.2
8351.08
8413.23
8572.9
8589.36
8598.28
8607.39
8608.72
8617.92
8771.76
8743.23
8709.8
8631.23
8396.5
8389.09
8523.95
8484.61
8404.05
8425.35
8440.45
8439.02
8428.04
8404.03
8416.34
8354.65
8319.1
8260.14
8175.9
8119.65
8008.26
7921.17
7842.57
7788.11
7769.93
7773.46
7929.17
8036.81
8000.93
8076.97
8206.96
8274.76
8334.16
8388.86
8431.07
8490.43
8521.55
8493.02
8595.13
8607.42
8590.86
8582.46
8524.53
8518.28
8495.98
8472.02
8446.59
8419.92
8392.41
8376.24
8334.45
8365.52
8329.18
8316.74
8329.41
8325.21
8246.19
8258.9
8271.67
8184.18
8222.44
8167.6
8268.68
8283.49
8425.92
8401.48
8376.17
8350.7
8327.22
8290.63
8298.49
8316.42
8465.72
8477.97
8489.35
8499.79
8509.18
8504.94
8344.84
8349.18
8422.55
8328.58
8362.56
8320.24
8279.54
8271.53
8291.65
8293.01
8315.36
8323.11
8358.19
8401.23
8464.35
8488.22
8515.04
8533.0
8829.83
8730.38
8723.25
8711.17
8772.54
8743.19
8708.91
8606.03
8549.81
8530.97
8474.73
8369.4
8400.84
8409.57
8424.43
8428.92
8424.78
8420.79
8419.98
8376.71
8344.75
8288.1
8206.96
8128.85
7991.75
7894.36
7806.49
7730.49
7696.35
7704.44
7851.43
7985.11
8082.68
8127.29
8162.21
8231.27
8322.85
8373.01
8414.55
8478.42
8504.18
8453.95
8576.07
8565.71
8568.35
8560.01
8526.33
8481.63
8457.15
8445.18
8469.58
8430.23
8389.98
8422.74
8352.93
8318.53
8291.76
8280.07
8289.12
8303.72
8314.96
8225.83
8248.46
8270.63
8257.82
8221.32
8247.39
8264.91
8279.82
8287.47
8293.07
8297.38
8343.72
8329.53
8319.68
8334.33
8484.12
8497.83
8510.7
8522.63
8426.42
8361.03
8364.78
8368.02
8370.78
8381.17
8395.0
8321.76
8317.21
8324.07
8335.41
8356.4
8384.76
8412.27
8416.16
8484.66
8507.52
8531.44
8754.92
8757.37
8750.91
8736.26
8728.51
8715.71
8697.78
8674.98
8640.78
8603.31
8759.88
8594.74
8349.67
8368.64
8391.29
8397.77
8412.32
8419.93
8423.53
8427.87
8434.67
8404.68
8371.82
8309.23
8228.22
8127.98
7992.07
7881.35
7782.12
7694.07
7649.64
7669.48
7755.11
7947.53
8068.82
8194.63
8149.45
8272.18
8311.24
8359.62
8423.27
8460.61
8492.93
8518.02
8554.73
8543.87
8544.62
8536.87
8525.15
8459.87
8486.36
8450.33
8434.51
8393.13
8350.47
8393.32
8327.66
8302.58
8257.42
8256.27
8273.36
8281.43
8301.71
8363.47
8212.96
8240.68
8252.9
8200.8
8222.36
8251.34
8214.24
8241.6
8261.22
8278.69
8316.05
8326.42
8337.58
8349.79
8491.67
8430.48
8455.52
8473.69
8450.74
8389.15
8394.77
8399.86
8404.44
8415.04
8428.42
8358.8
8352.29
8362.32
8381.75
8404.44
8429.57
8454.65
8476.39
8512.59
8545.29
8758.36
8764.35
8766.45
8705.42
8702.51
8720.89
8708.94
8705.56
8681.65
8626.55
8754.73
8567.81
8541.37
8483.34
8365.34
8378.74
8382.13
8392.24
8402.38
8413.94
8428.93
8476.37
8478.98
8445.74
8391.92
8332.59
8160.01
7999.14
7876.46
7775.85
7679.54
7628.44
7677.55
7774.61
7934.19
8076.32
8179.64
8189.74
8306.56
8350.96
8399.29
8454.32
8485.33
8535.24
8499.45
8520.44
8523.22
8521.81
8514.98
8503.75
8488.01
8458.3
8422.03
8382.95
8348.58
8306.07
8371.33
8316.63
8299.13
8297.77
8305.02
8271.63
8278.95
8301.42
8322.08
8383.98
8411.75
8205.15
8183.55
8209.08
8242.05
8218.76
8242.55
8271.21
8291.04
8309.61
8327.77
8350.92
8362.56
8367.8
8364.35
8379.17
8394.11
8411.78
8417.91
8425.39
8432.32
8445.31
8459.03
8423.33
8397.34
8389.99
8408.2
8426.13
8449.21
8490.25
8511.47
8546.49
8747.74
8747.74
8739.29
8747.2
8726.7
8618.72
8616.4
8610.59
8601.27
8706.97
8513.45
8687.58
8615.28
8586.1
8564.55
8497.86
8456.71
8365.48
8364.49
8370.32
8382.46
8429.71
8460.32
8493.53
8517.88
8498.03
8467.41
8354.9
8226.84
8074.35
7939.65
7831.25
7732.27
7692.6
7731.8
7807.34
7924.34
8072.65
8115.17
8238.87
8303.19
8338.96
8382.85
8426.89
8485.92
8558.94
8583.49
8537.0
8498.5
8552.92
8542.36
8526.75
8506.1
8468.96
8400.09
8361.02
8326.38
8377.24
8358.62
8319.37
8315.82
8316.02
8324.65
8332.66
8355.13
8325.81
8349.82
8410.84
8458.61
8477.79
8446.35
8457.43
8469.83
8324.22
8249.77
8272.59
8302.7
8322.48
8341.13
8359.1
8381.46
8369.44
8385.2
8401.17
8417.24
8433.29
8449.22
8452.03
8469.93
8477.67
8491.98
8458.25
8418.02
8435.36
8453.76
8470.81
8515.04
8544.29
8572.14
8704.14
8638.08
8648.93
8626.74
8636.15
8660.85
8662.34
8659.81
8653.16
8642.47
8627.84
8554.22
8531.66
8690.03
8616.73
8577.08
8532.27
8459.3
8414.22
8363.76
8371.68
8389.02
8414.13
8459.33
8522.16
8575.87
8598.43
8514.38
8383.05
8208.98
8075.76
7969.96
7875.02
7810.08
7789.8
7811.28
7881.63
7985.87
8069.62
8153.16
8254.83
8309.41
8343.52
8377.16
8414.27
8474.08
8535.53
8558.15
8481.71
8484.82
8476.53
8517.81
8503.28
8492.69
8461.79
8427.2
8482.28
8435.38
8371.79
8357.92
8346.77
8347.36
8350.51
8360.92
8369.05
8391.06
8416.31
8395.7
8465.15
8462.66
8500.76
8506.02
8411.01
8414.95
8420.5
8417.8
8414.43
8404.06
8403.67
8405.45
8406.91
8398.66
8389.61
8406.58
8423.73
8440.95
8458.12
8475.12
8491.85
8492.06
8518.13
8483.1
8490.47
8462.81
8480.45
8532.71
8570.51
8583.53
8688.21
8649.2
8662.81
8676.09
8688.64
8699.84
8681.46
8707.56
8709.68
8706.86
8699.06
8686.57
8669.72
8598.45
8572.48
8714.62
8679.93
8592.55
8541.29
8499.08
8347.72
8343.03
8345.51
8361.47
8390.09
8436.36
8530.15
8621.18
8671.97
8556.82
8388.27
8235.17
8106.89
8005.85
7935.46
7895.21
7877.32
7908.98
7984.68
8066.86
8140.02
8195.71
8281.21
8325.49
8344.27
8366.1
8417.37
8461.55
8518.06
8494.69
8495.3
8472.68
8473.38
8460.98
8427.52
8472.55
8443.05
8409.8
8476.16
8434.39
8430.11
8424.94
8420.28
8402.68
8397.38
8409.88
8428.33
8439.82
8460.3
8465.42
8486.22
8503.32
8531.86
8534.95
8467.35
8456.51
8451.16
8447.02
8431.45
8416.55
8408.4
8401.89
8387.68
8376.18
8410.09
8428.29
8446.66
8465.07
8483.4
8501.51
8519.3
8528.28
8503.12
8515.52
8527.47
8653.1
8678.64
8582.9
8585.64
8748.84
8670.22
8685.09
8700.19
8715.41
8730.34
8744.23
8755.83
8741.35
8761.9
8758.57
8749.0
8733.99
8714.32
8690.48
8617.27
8583.66
8704.3
8612.28
8557.57
8514.72
8360.07
8338.36
8316.23
8340.09
8363.51
8400.61
8486.02
8594.74
8617.96
8528.9
8383.6
8238.11
8122.43
8039.19
7992.34
7965.16
7983.02
8014.47
8069.65
8147.96
8208.57
8259.28
8285.28
8316.85
8310.95
8379.95
8429.8
8478.5
8499.65
8518.36
8563.02
8520.36
8468.14
8457.77
8434.76
8460.47
8431.78
8464.29
8462.64
8467.02
8461.45
8462.17
8463.41
8466.08
8484.97
8460.34
8474.6
8504.38
8512.84
8535.67
8537.98
8570.31
8571.87
8570.88
8513.85
8518.67
8512.48
8481.51
8469.72
8483.39
8444.79
8410.8
8381.37
8355.73
8430.68
8450.14
8469.76
8489.41
8508.93
8528.21
8547.1
8557.99
8659.29
8660.5
8721.41
8746.73
8778.88
8783.15
8794.6
8793.58
8810.48
8802.68
8815.23
8755.76
8773.92
8791.77
8807.63
8803.68
8806.22
8816.35
8803.81
8784.99
8761.58
8734.42
8665.66
8629.55
8735.34
8684.57
8594.29
8504.59
8356.38
8336.24
8326.71
8336.0
8359.74
8393.84
8433.73
8472.21
8481.98
8433.35
8352.49
8227.21
8128.99
8060.9
8030.24
8052.48
8093.67
8107.84
8142.01
8203.7
8325.99
8315.3
8326.85
8349.1
8361.43
8370.28
8428.31
8444.26
8492.21
8512.12
8538.6
8486.2
8473.36
8452.33
8438.53
8450.36
8402.09
8403.99
8408.02
8411.39
8436.37
8504.49
8511.77
8520.12
8529.99
8541.54
8549.2
8567.87
8586.5
8594.27
8610.75
8623.14
8618.06
8612.66
8563.6
8563.55
8552.73
8524.7
8506.7
8515.18
8459.03
8423.89
8393.27
8366.3
8451.18
8471.92
8492.82
8513.74
8534.52
8555.01
8672.2
8694.04
8714.34
8733.05
8750.13
8765.63
8802.82
8811.7
8823.12
8833.9
8847.83
8855.23
8857.76
8857.88
8878.36
8895.83
8911.99
8882.36
8911.7
8895.65
8876.82
8839.35
8810.91
8772.23
8732.57
8632.79
8721.92
8645.08
8583.21
8551.64
8353.16
8335.5
8327.8
8332.31
8344.46
8366.13
8368.29
8366.04
8349.05
8392.53
8312.59
8201.0
8136.5
8074.32
8065.68
8112.28
8248.92
8175.93
8164.41
8223.7
8288.68
8330.12
8352.72
8382.62
8402.13
8421.72
8455.31
8468.4
8485.29
8491.54
8461.14
8470.22
8465.5
8459.57
8450.7
8441.59
8436.26
8442.09
8448.62
8460.7
8493.24
8508.96
8525.82
8543.57
8591.62
8606.76
8656.02
8672.37
8686.77
8685.66
8707.9
8685.79
8709.82
8671.13
8622.66
8602.42
8595.45
8578.0
8545.14
8526.04
8494.52
8458.68
8407.08
8378.34
8471.37
8493.41
8515.62
8537.85
8649.46
8674.75
8698.68
8721.12
8741.94
8761.04
8778.37
8793.95
8830.2
8842.68
8850.62
8861.25
8872.06
8883.84
8897.29
8915.67
8924.36
8936.56
8964.82
8986.24
8990.41
8971.42
8937.8
8898.75
8843.05
8805.8
8737.64
8708.42
8582.28
8528.48
8580.11
8556.95
8348.29
8332.63
8325.57
8326.25
8333.92
8323.37
8317.32
8310.79
8283.52
8261.92
8245.88
8170.12
8133.04
8095.95
8070.9
8090.33
8147.41
8165.87
8167.25
8217.83
8274.09
8334.98
8373.5
8401.27
8431.45
8446.73
8454.5
8487.2
8466.46
8470.79
8456.09
8472.86
8479.79
8466.02
8441.1
8459.8
8466.79
8476.98
8490.28
8507.37
8547.17
8567.91
8589.55
8611.62
8654.18
8678.61
8695.64
8703.39
8717.9
8722.74
8722.19
8723.87
8749.43
8726.5
8715.44
8650.97
8630.88
8608.74
8586.28
8562.98
8514.27
8476.98
8443.25
8391.56
8548.5
8569.07
8589.55
8658.25
8673.58
8699.62
8724.29
8747.42
8768.85
8788.43
8806.06
8821.73
8856.95
8869.11
8877.05
8887.17
8897.76
8909.92
8924.69
8943.0
8965.63
8995.96
9026.42
9056.4
9070.84
9041.22
8986.41
8929.88
8872.77
8825.47
8750.13
8709.03
8654.14
8597.8
8486.69
8571.12
8406.48
8330.86
8313.22
8286.5
8276.92
8270.4
8285.41
8280.22
8230.48
8212.06
8152.51
8129.46
8090.71
8067.24
8050.7
8059.23
8100.1
8141.65
8156.92
8209.72
8271.1
8329.17
8395.03
8415.98
8417.29
8443.69
8463.42
8468.56
8454.5
8464.93
8471.26
8474.86
8482.21
8472.55
8508.29
8488.15
8493.4
8510.54
8529.87
8552.24
8579.63
8622.99
8649.36
8675.69
8718.82
8742.0
8752.6
8771.13
8777.42
8787.91
8792.33
8790.9
8784.2
8778.4
8784.01
8742.23
8717.12
8649.93
8623.75
8600.16
8534.31
8495.61
8460.04
8427.26
8572.12
8593.74
8615.31
8636.7
8696.47
8723.34
8748.83
8772.77
8794.92
8815.11
8833.15
8848.96
8871.02
8894.86
8904.74
8911.67
8921.52
8933.48
8948.89
8968.87
8994.46
9026.64
9066.34
9111.95
9146.03
9088.92
9021.75
8956.67
8901.67
8836.95
8779.35
8726.15
8668.87
8610.6
8509.78
8283.72
8247.9
8366.35
8342.02
8312.73
8265.47
8256.44
8237.24
8207.57
8198.15
8176.17
8104.88
8041.3
8060.87
8092.22
8043.55
8042.75
8082.26
8131.68
8188.37
8195.55
8267.35
8341.43
8384.46
8398.88
8436.14
8462.12
8491.42
8460.09
8475.57
8484.88
8488.43
8488.43
8488.34
8499.14
8513.9
8528.38
8564.74
8540.03
8564.23
8591.57
8621.48
8653.25
8707.38
8745.38
8773.14
8798.62
8815.62
8829.5
8845.95
8855.36
8857.64
8853.3
8843.23
8828.44
8814.49
8813.22
8758.12
8726.96
8682.66
8636.45
8609.12
8513.4
8476.18
8441.54
8594.29
8616.95
8639.6
8662.13
8738.31
8745.62
8772.05
8796.91
8819.96
8840.93
8859.55
8875.65
8897.2
8920.14
8928.96
8936.69
8943.66
8954.9
8970.09
8990.24
9016.29
9048.63
9086.21
9123.1
9138.37
9097.37
9052.29
8991.42
8935.51
8844.33
8772.6
8733.08
8681.07
8615.74
8527.1
8317.6
8291.66
8264.03
8233.95
8296.0
8268.38
8244.56
8224.45
8166.85
8180.48
8139.09
8099.49
8035.72
8017.65
7962.89
8048.65
8065.92
8107.47
8134.82
8179.63
8192.1
8281.71
8336.96
8353.82
8408.65
8451.55
8455.89
8483.01
8504.39
8501.12
8509.79
8509.91
8504.42
8499.01
8505.89
8512.21
8535.36
8572.01
8607.24
8647.88
8688.11
8733.07
8785.38
8848.74
8889.47
8820.16
8845.05
8873.18
8892.08
8907.06
8915.65
8916.08
8909.16
8896.08
8835.2
8803.44
8770.57
8809.93
8795.89
8728.57
8699.06
8639.91
8529.51
8490.93
8454.73
8614.75
8638.42
8662.15
8685.81
8709.26
8766.16
8793.61
8819.55
8843.67
8865.65
8885.12
8901.76
8915.35
8945.24
8952.86
8958.98
8959.23
8969.26
8982.57
9001.64
9023.27
9051.03
9081.83
9107.66
9114.24
9092.2
9049.03
8992.16
8931.59
8855.76
8783.34
8707.72
8641.75
8599.3
8284.6
8274.09
8292.97
8266.92
8238.49
8209.06
8180.74
8256.87
8200.52
8135.83
8153.58
8124.29
8063.44
7989.95
8047.36
7961.93
7967.51
7992.59
8118.39
8143.58
8159.9
8226.71
8284.34
8304.86
8373.9
8419.64
8466.98
8472.89
8505.79
8531.3
8525.41
8536.42
8535.08
8523.85
8515.92
8517.13
8529.74
8547.08
8577.28
8611.64
8652.15
8695.76
8741.42
8790.64
8857.43
8894.09
8932.46
8883.98
8916.42
8942.28
8958.52
8966.54
8965.47
8956.49
8894.82
8861.25
8825.81
8789.64
8753.56
8718.16
8717.72
8565.2
8524.22
8466.5
8497.41
8466.38
8633.24
8657.87
8682.63
8707.42
8732.08
8826.53
8813.13
8840.25
8865.63
8888.89
8909.56
8927.12
8941.15
8970.37
8976.8
8981.15
8982.48
8993.84
9008.03
9017.19
9033.04
9052.41
9078.15
9095.56
9097.31
9077.56
9043.67
8977.68
8910.26
8840.91
8766.94
8644.72
8582.06
8586.95
8263.73
8255.22
8243.04
8226.59
8205.8
8181.73
8157.42
8137.76
8221.38
8107.08
8108.65
8157.87
8135.04
8008.5
8003.92
7945.29
7941.97
7956.67
8018.4
8092.98
8165.55
8230.09
8249.82
8314.47
8406.89
8448.09
8483.66
8458.45
8498.33
8534.32
8563.21
8581.26
8582.72
8568.3
8554.63
8544.07
8547.47
8561.37
8579.97
8615.0
8653.85
8697.09
8742.14
8816.12
8866.31
8899.81
8936.64
8968.75
8952.46
8980.37
8998.98
9000.34
8983.91
8946.38
8912.88
8876.23
8838.0
8799.39
8761.21
8724.03
8694.38
8604.01
8559.15
8473.34
8436.26
8374.79
8649.44
8674.96
8700.71
8726.57
8752.41
8778.08
8838.76
8858.49
8885.27
8910.04
8932.29
8951.32
8966.36
8995.52
9000.87
9003.13
9003.27
9014.53
9029.69
9029.26
9034.24
9051.09
9067.71
9081.71
9084.02
9056.72
9026.11
8970.08
8907.7
8843.4
8788.3
8734.86
8584.76
8555.89
8204.84
8202.67
8246.05
8227.7
8202.28
8170.0
8134.83
8107.96
8175.1
8102.35
8084.26
8056.35
8133.78
8124.33
7998.13
7918.76
7928.9
7955.38
7990.74
8051.06
8179.19
8192.09
8261.24
8342.54
8418.2
8458.64
8518.99
8507.44
8521.77
8566.67
8606.83
8637.37
8650.3
8642.33
8618.24
8591.93
8577.86
8578.19
8590.19
8618.37
8653.63
8697.26
8744.87
8792.68
8857.47
8897.15
8933.76
8965.92
8992.18
9020.59
9025.74
9014.63
8994.66
8967.52
8931.03
8879.01
8839.1
8799.06
8759.71
8721.58
8684.99
8588.41
8548.33
8510.36
8426.24
8388.68
8663.05
8689.37
8716.0
8742.86
8769.82
8796.73
8880.07
8873.6
8901.78
8928.18
8952.33
8973.45
8990.33
9008.23
9024.62
9024.19
9023.07
9021.37
9026.86
9026.41
9027.49
9037.09
9049.78
9055.11
9048.4
9022.91
8992.84
8930.89
8867.27
8801.95
8745.53
8693.22
8561.07
8540.25
8161.26
8176.17
8184.0
8238.86
8194.87
8165.17
8110.38
8066.62
8024.8
8061.65
8053.28
7969.39
8001.47
8009.04
7973.97
7985.1
7964.53
7984.84
8027.8
8084.25
8141.02
8205.45
8271.04
8351.03
8425.92
8491.42
8491.09
8515.84
8566.69
8617.75
8667.41
8711.24
8732.74
8736.52
8696.28
8646.72
8606.89
8584.32
8589.8
8616.86
8654.49
8695.36
8739.65
8813.67
8849.29
8887.46
8923.2
8955.22
9005.34
9009.31
9006.48
8990.13
8965.74
8960.63
8926.97
8885.36
8828.6
8788.27
8748.77
8710.61
8674.08
8656.46
8528.68
8491.85
8457.13
8420.13
8673.72
8700.71
8728.12
8755.88
8783.84
8811.89
8839.83
8891.27
8914.24
8942.03
8968.02
8991.78
9011.67
9031.11
9046.84
9043.19
9036.4
9023.78
9018.5
9012.07
9014.65
9014.38
9018.09
9017.57
9003.95
8971.97
8940.94
8872.28
8808.7
8744.71
8687.96
8643.53
8522.96
8504.8
8186.44
8204.61
8219.29
8219.99
8202.09
8223.16
8122.91
8029.8
8020.52
8036.4
8023.58
8006.01
7989.97
8057.74
8067.86
8034.74
8053.88
8056.48
8066.33
8118.15
8160.1
8216.51
8277.93
8390.12
8428.88
8465.78
8488.05
8526.84
8569.83
8629.9
8694.58
8761.07
8814.99
8838.51
8775.77
8687.4
8619.83
8586.54
8578.57
8617.39
8652.24
8687.98
8730.07
8769.8
8834.53
8870.21
8904.4
8969.25
8979.5
8981.28
8976.33
8958.2
8933.44
8901.41
8864.17
8868.25
8830.26
8767.02
8728.42
8691.17
8655.53
8625.77
8504.39
8469.15
8435.89
8404.65
8681.08
8708.6
8736.66
8765.17
8794.01
8823.04
8852.05
8880.77
8921.71
8950.1
8976.94
9003.21
9027.84
9044.56
9065.19
9057.85
9045.45
9040.26
9015.7
8999.32
8992.05
8986.4
8979.45
8967.12
8946.12
8904.76
8898.71
8854.79
8804.02
8669.99
8607.84
8691.67
8475.44
8462.79
8206.99
8240.7
8265.12
8273.45
8334.67
8271.43
8181.25
8101.78
8047.73
8002.53
8059.97
8042.2
8027.1
7987.57
8117.4
8192.3
8218.23
8189.26
8225.42
8211.93
8223.07
8277.65
8310.91
8393.36
8426.98
8455.84
8472.23
8511.41
8556.93
8622.99
8698.53
8772.07
8862.89
8948.7
8818.16
8693.18
8602.05
8573.21
8575.72
8619.38
8647.34
8681.04
8716.03
8751.53
8790.1
8826.32
8921.47
8936.21
8943.3
8942.52
8934.15
8915.27
8889.99
8858.04
8821.67
8782.39
8797.79
8761.4
8719.79
8663.55
8629.64
8597.35
8475.74
8442.5
8411.11
8381.61
8684.75
8712.63
8741.19
8770.32
8799.88
8829.72
8859.59
8889.16
8933.13
8951.55
8976.81
9003.43
9034.97
9057.48
9075.53
9064.29
9046.73
9038.25
9023.83
9011.96
9001.96
8961.93
8929.06
8901.22
8874.92
8825.75
8811.87
8767.71
8710.71
8628.75
8637.62
8557.56
8521.99
8301.97
8341.73
8377.23
8407.94
8421.54
8399.61
8338.0
8246.98
8169.92
8177.3
8024.9
8049.6
8076.36
8061.68
8052.93
8042.39
8249.92
8274.99
8238.74
8265.22
8302.53
8359.27
8323.98
8408.26
8434.99
8396.35
8416.57
8450.14
8484.95
8524.42
8593.38
8666.78
8756.18
8833.77
8858.5
8784.71
8669.58
8547.48
8560.71
8576.42
8603.51
8643.17
8672.84
8702.08
8731.73
8759.23
8844.8
8882.56
8892.88
8896.36
8892.66
8881.96
8861.08
8834.17
8804.48
8769.64
8732.56
8694.36
8655.9
8688.07
8649.97
8596.89
8566.91
8549.43
8412.26
8383.11
8355.67
8684.3
8712.38
8741.28
8770.89
8801.05
8831.53
8862.08
8892.3
8921.52
8947.48
8970.49
8994.85
9031.57
9057.81
9071.91
9057.95
9036.84
9026.7
9006.98
8988.58
8970.83
8952.02
8929.68
8900.83
8833.55
8778.52
8698.88
8657.77
8580.39
8536.48
8494.42
8460.05
8407.52
8270.93
8314.51
8370.56
8431.21
8473.91
8461.97
8401.1
8304.72
8209.88
8285.85
8302.42
8188.26
8243.23
8188.52
8191.98
8151.35
8185.47
8205.32
8236.01
8313.19
8337.3
8344.91
8367.71
8425.51
8423.44
8410.26
8431.82
8423.62
8442.17
8473.8
8544.38
8629.15
8707.53
8768.9
8774.1
8733.59
8659.71
8594.74
8579.45
8589.26
8614.07
8640.66
8664.5
8686.55
8708.7
8776.81
8805.31
8820.26
8829.65
8832.64
8828.44
8819.03
8796.5
8769.76
8736.32
8708.79
8674.57
8639.7
8604.83
8568.94
8526.67
8565.62
8539.04
8513.57
8378.85
8352.27
8327.21
8679.28
8707.39
8736.52
8766.51
8797.14
8828.15
8859.23
8890.0
8919.88
8948.09
8964.0
8989.79
9020.12
9040.88
9044.64
9036.55
9014.36
9004.56
8980.72
8956.76
8932.15
8905.53
8874.95
8838.16
8749.53
8686.52
8593.82
8491.09
8437.79
8430.45
8388.07
8353.35
8312.27
8204.3
8247.33
8321.92
8404.42
8514.5
8468.79
8445.91
8317.25
8333.86
8328.54
8357.61
8396.11
8230.12
8302.5
8236.83
8229.81
8243.5
8262.92
8273.48
8323.51
8386.25
8367.76
8474.7
8443.25
8413.53
8417.17
8414.08
8417.72
8410.95
8403.1
8502.83
8590.67
8662.88
8708.63
8713.84
8692.33
8653.4
8617.91
8611.69
8613.98
8615.79
8635.02
8656.72
8670.66
8724.8
8745.26
8756.29
8762.93
8767.16
8770.92
8761.61
8746.42
8726.59
8703.49
8664.71
8634.4
8590.97
8524.98
8492.54
8461.01
8430.52
8401.19
8373.08
8346.28
8346.03
8313.38
8295.77
8669.18
8697.17
8726.46
8756.81
8787.89
8819.36
8850.85
8882.01
8912.44
8941.78
8948.99
8975.81
8997.97
9011.2
9011.94
9002.27
8980.67
8972.66
8945.85
8917.44
8887.14
8853.96
8816.44
8772.93
8651.1
8513.38
8413.63
8392.14
8370.47
8322.37
8278.94
8241.88
8204.66
8150.85
8174.64
8225.52
8290.97
8349.04
8355.74
8325.59
8356.37
8369.95
8384.17
8423.48
8422.68
8431.88
8402.56
8369.89
8368.71
8392.5
8386.99
8323.41
8384.71
8407.76
8389.83
8460.99
8460.65
8456.25
8464.84
8429.98
8431.27
8428.65
8444.92
8500.56
8563.51
8623.69
8654.83
8670.51
8664.67
8647.15
8627.4
8618.65
8634.69
8641.15
8638.67
8649.81
8688.71
8689.71
8698.63
8696.44
8689.22
8696.0
8693.58
8682.46
8665.28
8629.08
8603.6
8577.77
8516.1
8486.8
8458.3
8430.63
8403.8
8377.83
8352.75
8328.61
8305.46
8303.97
8282.65
8262.32
8653.45
8681.21
8710.68
8741.47
8773.09
8805.05
8836.9
8868.26
8898.81
8928.3
8956.59
8950.36
8966.5
8974.36
8971.6
8959.45
8938.76
8932.98
8904.0
8872.15
8837.32
8798.84
8755.7
8706.73
8566.36
8352.25
8358.77
8322.45
8265.86
8215.89
8171.48
8130.77
8088.93
8055.84
8063.94
8086.77
8146.39
8170.6
8188.59
8172.66
8357.69
8390.71
8442.69
8478.78
8494.19
8500.83
8439.75
8427.96
8427.38
8424.15
8410.93
8432.97
8436.89
8446.79
8424.67
8430.12
8463.6
8490.02
8492.97
8497.43
8449.99
8456.15
8477.48
8518.63
8550.41
8598.93
8621.98
8637.55
8642.38
8637.12
8628.15
8625.81
8630.98
8635.26
8626.44
8674.3
8648.54
8647.35
8646.72
8634.94
8574.8
8609.67
8605.05
8587.53
8564.6
8540.42
8515.79
8492.47
8433.57
8408.74
8388.03
8365.66
8343.98
8322.88
8302.34
8282.38
8287.81
8269.1
8250.97
8233.54
8631.5
8658.99
8688.79
8720.29
8752.7
8785.31
8817.53
8848.96
8879.25
8908.12
8935.26
8904.72
8929.47
8933.62
8929.02
8911.73
8891.68
8876.87
8857.13
8822.61
8784.25
8741.65
8694.11
8561.12
8408.43
8418.49
8395.17
8308.17
8165.98
8112.81
8065.04
8009.77
7962.07
7937.52
7915.03
7920.51
7967.67
8012.47
8031.75
8271.88
8353.27
8425.85
8507.95
8570.45
8583.42
8540.63
8513.82
8490.88
8526.9
8504.7
8483.11
8489.77
8460.34
8504.64
8481.8
8495.04
8503.07
8516.32
8528.56
8516.67
8514.74
8478.44
8506.88
8531.51
8561.75
8579.57
8597.99
8613.25
8619.12
8625.91
8627.06
8632.46
8634.68
8612.48
8632.9
8651.1
8651.16
8617.66
8600.1
8578.52
8552.66
8538.63
8521.4
8498.0
8471.27
8445.02
8421.42
8381.67
8362.64
8345.89
8312.79
8298.97
8282.76
8266.76
8250.92
8281.34
8248.96
8233.85
8218.97
8204.48
8602.79
8630.04
8660.55
8693.25
8726.89
8760.45
8793.19
8824.64
8854.49
8882.47
8908.23
8931.29
8889.48
8890.85
8844.68
8825.81
8841.83
8816.05
8807.08
8770.48
8729.43
8609.0
8688.2
8668.87
8663.94
8394.89
8319.05
8260.66
8181.87
8100.47
7994.69
7944.62
7869.0
7784.88
7712.42
7715.75
7796.28
7925.54
8072.57
8212.83
8373.69
8471.77
8559.0
8630.18
8703.64
8598.52
8580.38
8602.76
8557.48
8550.95
8527.83
8568.21
8535.74
8546.95
8551.33
8532.85
8554.78
8547.77
8542.34
8549.89
8551.03
8563.01
8520.41
8527.16
8560.72
8560.72
8582.82
8593.48
8601.55
8604.87
8621.33
8596.04
8595.2
8620.63
8618.38
8626.94
8621.47
8583.1
8558.6
8519.21
8493.1
8466.52
8436.89
8404.81
8361.15
8331.53
8307.59
8289.46
8275.9
8265.24
8261.11
8229.16
8221.53
8210.69
8222.01
8235.8
8210.49
8198.92
8187.25
8175.66
8566.39
8590.29
8618.55
8649.38
8680.88
8705.39
8732.41
8796.07
8825.46
8852.51
8876.99
8795.36
8809.59
8808.17
8796.75
8794.94
8790.95
8866.65
8840.4
8721.89
8842.92
8801.28
8752.41
8715.66
8649.37
8381.33
8293.18
8220.63
8168.47
8017.4
7962.19
7881.13
7789.81
7678.95
7566.52
7516.68
7639.09
7826.64
8022.27
8210.01
8399.64
8531.86
8640.74
8727.29
8694.03
8658.54
8683.86
8645.34
8637.12
8603.86
8582.49
8627.19
8581.31
8580.18
8580.32
8547.94
8555.99
8582.27
8566.2
8566.26
8586.21
8590.58
8594.93
8532.57
8543.77
8552.01
8559.91
8561.16
8577.72
8591.96
8566.58
8566.7
8566.05
8568.71
8595.77
8587.05
8576.29
8558.92
8512.88
8481.43
8425.2
8389.86
8345.72
8303.08
8263.97
8232.24
8210.15
8196.94
8189.8
8191.62
8191.14
8190.32
8188.52
8236.32
8203.21
8180.77
8173.21
8165.02
8156.41
8147.6
8522.59
8546.29
8576.28
8609.4
8642.79
8674.66
8704.14
8730.94
8755.0
8776.31
8759.02
8755.94
8772.67
8765.11
8744.59
8729.4
8796.14
8822.3
8912.47
8886.3
8853.64
8814.08
8769.4
8706.23
8642.77
8345.6
8283.75
8212.95
8163.49
8018.83
7951.17
7864.44
7755.73
7623.91
7479.84
7323.5
7553.6
7795.46
8028.52
8235.01
8409.95
8595.65
8717.84
8761.31
8807.09
8827.78
8825.7
8715.04
8696.55
8666.8
8684.96
8672.92
8656.51
8620.68
8621.01
8597.29
8588.68
8605.11
8604.26
8601.34
8614.64
8614.98
8602.68
8596.87
8554.85
8544.82
8549.04
8550.19
8571.39
8550.86
8550.56
8548.91
8546.02
8573.95
8559.86
8549.78
8532.57
8509.29
8462.5
8422.5
8378.27
8320.49
8264.02
8213.84
8168.8
8134.83
8115.19
8107.83
8107.73
8119.79
8125.92
8130.87
8136.68
8190.62
8159.13
8153.89
8155.35
8151.31
8121.82
8120.82
8474.27
8498.26
8530.97
8567.11
8602.65
8635.58
8665.18
8691.38
8714.34
8705.29
8712.75
8715.83
8714.38
8704.58
8694.13
8675.19
8769.46
8794.5
8896.16
8871.97
8841.54
8804.55
8745.87
8702.96
8643.65
8347.55
8290.14
8258.57
8179.8
8042.57
7971.55
7883.38
7777.38
7656.83
7527.91
7495.2
7619.0
7843.93
8078.42
8284.74
8482.59
8654.78
8780.94
8856.81
8915.12
8910.43
8901.34
8903.34
8845.57
8731.33
8750.08
8721.42
8702.25
8678.43
8669.0
8676.58
8642.21
8653.73
8663.77
8658.03
8650.48
8636.76
8625.66
8626.72
8556.77
8537.54
8551.7
8558.9
8544.06
8542.4
8537.9
8532.21
8556.05
8543.48
8522.28
8504.58
8482.14
8453.96
8419.08
8376.69
8313.99
8256.25
8193.0
8133.19
8081.16
8046.58
8029.41
8033.86
8044.12
8056.44
8067.99
8076.7
8140.42
8115.16
8118.4
8115.56
8120.62
8119.23
8116.8
8113.61
8438.83
8454.73
8491.95
8532.16
8570.39
8604.63
8634.4
8659.88
8681.39
8659.9
8665.8
8667.4
8664.67
8657.58
8650.52
8631.02
8638.32
8626.33
8616.8
8597.44
8832.28
8796.46
8740.6
8705.13
8528.47
8361.55
8310.65
8285.99
8141.86
8087.83
8020.47
7890.76
7799.41
7729.78
7676.95
7706.83
7816.41
7980.56
8201.4
8405.75
8595.35
8762.06
8889.18
8969.45
9004.07
9007.64
9017.52
8992.46
8934.78
8923.23
8809.48
8783.77
8749.5
8725.49
8718.6
8721.59
8708.1
8704.04
8699.5
8691.68
8677.15
8660.54
8660.79
8622.53
8604.16
8598.17
8547.82
8530.61
8530.59
8526.67
8519.03
8509.66
8523.37
8498.75
8479.75
8457.1
8430.1
8397.94
8359.79
8333.11
8272.2
8205.72
8139.13
8069.94
8017.25
7986.38
7973.73
7976.85
7983.03
7995.92
8008.02
8080.92
8063.42
8070.86
8069.21
8072.55
8093.14
8094.25
8096.29
8083.3
8394.99
8417.36
8455.13
8495.52
8533.32
8566.62
8595.1
8619.07
8638.95
8655.16
8667.98
8677.63
8684.24
8594.77
8595.44
8566.58
8560.3
8580.52
8562.95
8543.59
8522.89
8592.14
8740.26
8529.68
8499.58
8279.42
8379.37
8326.04
8100.28
8066.49
8023.98
7956.26
7893.82
7867.52
7860.01
7940.79
8025.36
8140.57
8323.72
8517.56
8691.36
8868.74
9011.19
9069.03
9098.4
9094.7
9077.41
9048.05
9011.85
8962.58
8856.86
8823.16
8808.01
8789.26
8778.91
8775.33
8771.4
8772.9
8748.31
8732.1
8714.19
8688.69
8666.12
8635.79
8613.19
8598.32
8589.9
8519.02
8518.12
8512.16
8500.44
8485.88
8486.97
8459.56
8435.64
8408.53
8377.75
8373.62
8326.41
8270.75
8209.59
8148.18
8091.44
8031.06
7977.61
7940.44
7923.47
7915.66
7921.65
7976.04
7957.97
7972.6
8004.26
8034.55
8041.37
8046.44
8050.01
8033.23
8021.57
8035.47
8370.42
8395.92
8450.74
8459.49
8493.32
8523.08
8548.37
8569.37
8586.49
8600.12
8610.54
8617.98
8622.57
8537.58
8519.63
8547.32
8537.59
8551.88
8525.72
8504.24
8482.89
8554.07
8528.17
8500.69
8423.63
8408.7
8167.39
8171.49
8131.76
8116.6
8070.04
8041.66
8024.78
8063.54
8074.48
8119.46
8201.34
8304.0
8431.1
8631.42
8798.93
8959.9
9095.41
9141.02
9155.21
9147.83
9126.93
9094.14
9050.18
8939.69
8911.2
8882.39
8861.4
8839.55
8837.98
8849.02
8813.96
8851.54
8837.78
8776.83
8755.1
8727.32
8699.53
8675.4
8646.48
8603.04
8591.71
8508.05
8508.99
8502.8
8484.91
8462.93
8446.23
8419.57
8432.38
8398.01
8358.74
8314.4
8266.1
8210.74
8155.95
8097.78
8054.5
8001.93
7955.6
7919.71
7901.39
7897.12
7901.55
7962.8
7951.94
7975.78
8000.73
8012.29
8022.17
8033.71
8002.11
8017.93
8025.54
8034.89
8357.49
8379.62
8431.45
8467.37
8501.8
8488.74
8510.57
8528.67
8543.3
8554.77
8565.61
8570.21
8572.04
8571.26
8568.0
8583.22
8497.24
8509.12
8491.17
8473.22
8455.98
8529.26
8501.98
8488.49
8475.5
8406.92
8411.91
8302.54
8270.6
8240.53
8234.44
8210.83
8181.93
8189.02
8219.46
8262.18
8333.87
8436.96
8563.76
8712.52
8857.28
8986.97
9122.11
9158.66
9178.79
9175.04
9157.54
9121.12
9017.03
8994.92
8964.14
8941.33
8921.33
8901.67
8900.89
8913.47
8886.15
8904.89
8882.96
8861.24
8834.78
8765.7
8762.2
8723.13
8670.2
8644.42
8602.22
8546.82
8506.68
8510.18
8486.58
8449.56
8418.98
8401.68
8368.71
8332.34
8292.58
8248.07
8206.41
8158.6
8107.02
8072.75
8026.85
7981.52
7940.42
7910.78
7893.1
7886.2
7942.47
7937.55
7959.05
7966.61
7965.97
7975.35
8020.17
8050.63
8060.36
8072.04
8067.57
8119.44
8347.04
8366.24
8391.33
8444.53
8472.71
8497.99
8519.52
8493.37
8504.82
8513.36
8519.17
8522.41
8523.2
8521.64
8502.1
8497.29
8538.42
8470.03
8454.48
8439.44
8425.6
8499.97
8478.48
8389.21
8400.9
8413.26
8425.31
8425.57
8287.04
8304.06
8324.43
8284.99
8276.15
8292.33
8329.8
8381.16
8452.54
8542.93
8650.68
8764.61
8876.9
9008.94
9116.02
9157.96
9174.42
9177.42
9165.65
9139.91
9053.14
9039.62
9024.83
9002.26
8982.78
8970.65
8952.1
8946.46
8942.25
8952.5
8932.07
8903.49
8874.22
8840.25
8793.42
8751.54
8715.99
8673.09
8606.83
8538.82
8493.38
8579.94
8467.05
8411.9
8380.64
8348.17
8311.35
8271.56
8230.11
8188.58
8149.75
8131.95
8092.05
8044.48
8004.36
7967.13
7935.36
7911.3
7937.9
7953.9
7946.06
7955.35
7973.8
7981.6
7965.16
8009.86
8059.39
8098.59
8114.11
8103.52
8115.26
8126.33
8312.84
8328.84
8371.67
8415.12
8443.96
8463.76
8480.57
8494.25
8462.87
8469.15
8473.16
8474.99
8474.69
8455.27
8451.66
8446.44
8487.39
8426.27
8415.49
8402.63
8473.89
8454.37
8364.59
8377.26
8392.05
8408.62
8426.17
8433.84
8374.6
8333.2
8349.21
8357.15
8355.9
8390.17
8437.58
8483.49
8544.64
8631.32
8713.73
8840.32
8939.3
9029.52
9095.9
9130.29
9164.97
9186.7
9178.88
9086.91
9082.63
9078.94
9070.91
9066.94
9048.87
9025.26
9008.13
8990.44
8973.79
8995.89
8975.2
8946.14
8913.57
8877.33
8830.56
8780.43
8742.46
8642.24
8589.79
8542.53
8445.17
8446.46
8401.44
8359.52
8341.4
8304.32
8264.2
8218.04
8174.45
8134.83
8118.17
8094.66
8063.79
8006.77
7980.94
7951.31
7980.77
7961.63
7974.79
7975.21
7977.88
7982.16
7987.54
7971.76
8020.57
8049.84
8087.69
8104.1
8120.03
8110.74
8122.67
8133.87
8299.52
8314.96
8331.63
8348.21
8379.68
8393.03
8440.86
8450.47
8457.82
8425.64
8427.8
8409.84
8408.62
8405.84
8401.55
8416.53
8433.8
8368.52
8374.12
8362.68
8431.44
8331.45
8342.26
8355.81
8372.16
8391.11
8411.96
8424.76
8444.7
8394.8
8362.32
8361.55
8353.28
8414.26
8479.88
8535.85
8595.7
8657.06
8764.5
8849.94
8934.79
9011.59
9075.86
9095.79
9143.64
9177.76
9095.17
9099.55
9103.13
9107.75
9109.34
9148.99
9098.87
9073.77
9054.52
9042.53
9025.35
9041.61
9017.53
8988.89
8956.75
8917.31
8882.36
8747.86
8692.29
8633.26
8576.86
8526.96
8391.38
8371.22
8342.47
8307.04
8270.7
8237.73
8222.01
8171.02
8111.01
8087.93
8057.98
8042.98
8029.43
8004.16
7995.84
7986.73
7980.5
7979.19
7979.56
7981.92
7985.7
7990.45
7995.84
8012.76
8040.87
8055.43
8093.56
8110.28
8105.84
8118.59
8130.67
8142.76
8277.36
8292.14
8306.47
8319.35
8347.19
8355.72
8362.36
8367.43
8388.43
8382.98
8364.38
8363.21
8360.82
8357.12
8352.08
8364.36
8379.97
8379.1
8329.51
8406.83
8446.39
8292.56
8303.23
8317.02
8334.05
8354.15
8376.92
8400.13
8361.16
8378.84
8357.18
8369.36
8386.5
8434.3
8492.05
8536.53
8593.55
8660.46
8758.9
8837.14
8913.48
8981.76
9023.69
9010.41
9056.27
9110.63
9092.9
9104.09
9113.65
9104.91
9130.18
9136.27
9124.35
9108.06
9093.31
9083.19
9067.28
9082.27
9058.13
9029.0
8994.98
8898.03
8836.97
8756.43
8688.08
8635.72
8535.52
8473.84
8336.95
8311.59
8285.37
8254.73
8221.83
8176.44
8149.6
8146.57
8098.74
8063.25
8029.47
7998.49
7993.41
7977.86
7981.51
7977.33
7976.81
7980.31
7984.41
7989.33
7994.65
8000.12
8013.48
8032.99
8047.57
8082.97
8100.12
8117.04
8114.07
8126.98
8139.18
8136.9
8251.96
8266.78
8279.53
8289.25
8295.92
8317.14
8319.32
8320.62
8321.45
8321.89
8320.2
8317.56
8314.0
8309.38
8303.57
8328.7
8326.27
8323.58
8282.19
8339.09
8250.15
8255.86
8264.45
8276.31
8291.61
8310.43
8331.43
8293.94
8320.23
8344.8
8363.87
8351.25
8377.53
8429.92
8480.14
8532.54
8590.76
8654.07
8727.67
8804.5
8877.69
8941.29
8947.93
8989.94
9040.91
9038.03
9084.96
9101.59
9116.66
9106.26
9122.42
9133.92
9138.78
9132.8
9124.53
9117.83
9098.19
9117.48
9094.18
9065.26
9031.03
8905.54
8847.43
8755.28
8674.02
8569.49
8506.57
8413.24
8262.63
8261.13
8230.31
8201.7
8170.97
8122.22
8098.98
8069.59
8074.27
8035.47
7996.73
7969.72
7959.9
7962.98
7961.09
7964.99
7972.76
7981.53
7990.21
7998.2
8005.32
8013.83
8026.98
8041.38
8055.59
8090.24
8107.28
8109.23
8122.78
8135.79
8148.59
8150.78
8223.23
8238.72
8250.49
8257.38
8259.89
8276.48
8274.28
8271.98
8270.11
8268.71
8267.56
8273.08
8268.43
8262.91
8261.82
8263.83
8273.12
8342.15
8291.9
8131.15
7993.97
8092.09
8217.9
8226.45
8238.7
8196.48
8215.5
8237.56
8261.18
8284.21
8252.59
8291.55
8327.74
8368.8
8413.66
8464.73
8525.04
8593.42
8670.4
8754.18
8812.55
8868.9
8889.63
8935.81
8983.33
9014.53
9006.63
9061.13
9082.09
9102.22
9119.71
9135.93
9147.22
9138.63
9134.31
9127.52
9134.01
9161.21
9124.77
9096.69
8987.11
8917.17
8841.01
8721.43
8620.95
8542.67
8466.5
8371.3
8139.15
8173.66
8175.48
8147.97
8118.72
8088.1
8037.32
8021.01
7993.66
8001.16
7957.75
7937.5
7914.37
7927.43
7935.79
7950.76
7968.12
7984.45
7998.36
8009.65
8019.93
8028.17
8038.05
8051.68
8081.93
8098.3
8114.93
8118.28
8131.83
8172.34
8182.51
8186.11
8190.08
8206.61
8217.78
8222.09
8220.6
8215.97
8226.19
8220.74
8216.65
8213.87
8212.04
8237.91
8224.31
8217.97
8214.21
8210.58
8206.32
8180.6
8029.23
8027.1
7997.86
8000.81
8007.37
8015.59
7957.2
7983.88
8033.7
8070.66
8109.66
8147.4
8180.78
8207.94
8220.75
8257.32
8297.66
8366.23
8430.22
8505.08
8590.44
8671.59
8751.45
8797.24
8834.39
8903.64
8934.58
8970.18
8970.92
8969.23
9003.56
9040.64
9061.24
9087.4
9117.32
9139.57
9154.58
9213.05
9187.03
9144.65
9132.14
9053.64
8983.11
8910.85
8813.25
8668.6
8528.49
8436.37
8428.56
8233.36
8067.36
8047.08
8125.16
8093.46
8065.51
8036.34
7989.64
7971.76
7944.25
7918.63
7915.28
7885.28
7877.11
7883.62
7906.28
7936.73
7966.56
7991.52
8010.76
8025.14
8033.22
8039.07
8052.17
8064.37
8092.0
8107.1
8114.16
8132.06
8167.48
8177.44
8183.28
8190.92
8150.31
8167.56
8178.19
8180.3
8169.99
8160.75
8151.41
8143.77
8138.38
8135.09
8155.1
8154.11
8183.74
8168.17
8163.83
8005.81
8070.9
8016.68
7998.89
7988.17
7958.61
7955.85
7956.22
7958.24
7964.23
7929.56
7932.62
7952.63
7973.84
8055.85
8083.49
8115.73
8111.42
8132.59
8163.39
8169.5
8249.65
8344.92
8468.04
8539.33
8659.61
8722.66
8771.07
8817.97
8850.62
8891.32
8904.85
8905.43
8948.03
8986.03
9026.49
9075.88
9110.46
9137.14
9129.63
9218.33
9194.96
9158.75
9115.46
9041.77
8961.42
8858.42
8721.7
8588.0
8464.09
8381.75
8297.69
8017.73
7971.39
7942.15
7933.12
7979.75
8016.83
7989.5
7941.69
7929.06
7900.44
7870.33
7844.01
7837.93
7812.27
7833.17
7878.68
7927.7
7972.46
8006.03
8029.52
8044.53
8045.76
8059.26
8073.13
8084.1
8095.09
8143.26
8150.91
8162.01
8172.66
8184.06
8187.95
8195.55
8101.52
8118.24
8124.4
8124.03
8116.36
8105.46
8094.87
8086.49
8080.87
8077.8
8076.72
8076.96
8007.14
8032.61
7991.54
7978.07
7943.36
7992.46
7977.51
7931.76
7922.76
7914.04
7906.55
7902.91
7902.68
7908.58
7883.74
7890.27
7908.86
7925.05
7936.82
7944.29
7956.28
7953.29
7985.34
8038.14
8121.99
8227.06
8337.86
8422.51
8521.89
8595.64
8696.33
8741.1
8787.56
8832.5
8858.63
8864.82
8879.25
8930.63
8981.4
9028.92
9066.46
9099.86
9125.87
9192.31
9206.14
9141.63
9103.33
8993.08
8936.39
8818.48
8656.4
8507.89
8388.54
8328.48
8209.64
8081.37
7902.65
7859.12
7827.04
7821.31
7807.0
7874.39
7892.17
7880.62
7851.52
7818.09
7778.09
7752.74
7708.32
7781.72
7856.38
7932.4
7991.82
8031.38
8055.44
8058.07
8073.4
8086.37
8095.31
8101.73
8115.7
8153.51
8157.25
8167.44
8177.61
8183.5
8192.23
8199.76
8040.86
8054.53
8061.77
8060.77
8053.21
8042.83
8032.93
8025.34
8020.64
8018.64
8019.91
7905.84
7903.66
7904.97
7949.78
7939.32
7919.97
7914.65
7951.49
7906.15
7892.19
7877.68
7863.42
7852.13
7844.93
7846.55
7857.12
7874.0
7856.12
7870.12
7876.59
7875.06
7868.1
7859.52
7858.97
7897.18
7976.87
8097.33
8210.4
8285.28
8384.62
8499.09
8598.07
8647.65
8703.12
8728.02
8739.07
8792.95
8853.45
8914.17
8973.73
9029.15
9058.78
9102.71
9176.62
9184.45
9181.1
9123.29
9040.19
8961.75
8857.09
8669.54
8542.45
8439.34
8321.41
8205.39
8091.88
7965.97
7798.37
7764.57
7721.76
7717.62
7738.25
7733.71
7795.1
7765.69
7848.45
7813.41
7768.26
7699.78
7686.59
7736.95
7823.16
7952.99
8040.69
8080.98
8093.85
8108.73
8109.58
8122.74
8132.33
8130.23
8153.56
8156.61
8163.57
8172.34
8183.71
8187.08
8195.77
8203.27
7973.83
7983.97
7989.17
7988.12
7982.07
7973.89
7966.24
7961.85
7958.48
7867.92
7862.6
7860.56
7861.32
7859.95
7875.3
7903.58
7897.32
7891.92
7885.8
7846.74
7870.56
7849.61
7829.25
7809.0
7794.22
7791.44
7805.63
7828.64
7849.71
7836.54
7839.91
7831.29
7815.93
7786.06
7769.53
7786.17
7863.1
7969.1
8062.64
8159.02
8235.07
8395.33
8441.81
8526.38
8591.65
8654.53
8681.81
8749.28
8822.56
8896.94
8969.55
9014.77
9083.43
9124.47
9168.61
9170.19
9137.95
9081.41
8968.81
8871.19
8710.05
8616.93
8447.0
8227.01
8173.0
8050.71
7973.72
7852.03
7606.72
7657.19
7629.89
7519.54
7554.85
7573.41
7690.52
7735.27
7856.55
7828.33
7793.39
7761.91
7800.33
7821.57
7894.84
7979.44
8083.44
8097.44
8111.1
8137.45
8161.2
8180.19
8174.38
8156.39
8170.87
8165.4
8168.83
8177.86
8180.06
8189.43
8198.22
8205.79
7901.86
7908.02
7911.05
7910.12
7908.89
7902.64
7897.11
7829.95
7820.32
7814.48
7812.24
7813.26
7815.19
7826.93
7823.47
7857.14
7910.36
7900.88
7843.24
7842.9
7835.95
7827.75
7799.89
7769.19
7750.43
7749.27
7770.83
7805.65
7835.22
7851.52
7834.15
7821.37
7792.78
7758.85
7726.17
7730.25
7800.56
7895.34
7993.77
8132.8
8224.14
8277.08
8336.13
8391.25
8461.32
8543.01
8663.59
8712.41
8804.44
8894.71
8979.06
9041.37
9119.65
9143.3
9149.4
9135.64
9076.5
9005.19
8899.59
8763.13
8601.53
8487.53
8320.82
8173.91
8054.76
8010.1
7779.86
7679.9
7540.1
7488.36
7437.82
7486.35
7534.89
7612.91
7664.38
7837.13
7849.76
7867.23
7848.26
7837.79
7833.7
7896.19
7945.77
7980.73
8054.03
8092.79
8121.79
8163.99
8219.54
8260.28
8229.79
8201.46
8181.27
8171.77
8171.51
8171.85
8180.45
8190.08
8199.25
8207.13
7828.02
7836.37
7836.14
7834.02
7802.06
7789.1
7776.75
7767.3
7761.3
7758.88
7759.9
7764.1
7770.14
7781.67
7789.29
7815.22
7900.93
7893.19
7902.63
7867.32
7850.35
7830.54
7805.93
7774.31
7748.83
7742.4
7762.42
7804.45
7841.9
7867.17
7879.07
7852.3
7829.62
7789.77
7762.33
7771.49
7822.79
7867.28
7992.9
8076.72
8144.32
8174.26
8228.19
8289.13
8355.2
8448.08
8575.72
8652.64
8794.63
8903.69
8998.63
9078.14
9104.83
9122.53
9115.69
9091.61
8997.6
8929.36
8822.31
8649.35
8505.4
8345.41
8200.51
8134.52
8012.87
7837.81
7305.59
7296.97
7257.21
7298.28
7320.13
7388.02
7450.54
7619.45
7684.19
7734.63
7854.15
7909.1
7918.01
7917.11
7998.72
7992.6
8015.57
8023.74
8078.61
8101.76
8136.43
8177.37
8258.31
8380.94
8266.41
8218.11
8187.45
8172.95
8172.21
8169.37
8178.31
8188.77
8198.8
8207.29
7761.62
7759.28
7739.91
7741.32
7728.65
7717.49
7708.69
7702.92
7700.53
7701.57
7705.92
7714.44
7733.38
7741.42
7752.1
7771.5
7889.45
7883.34
7901.82
7852.34
7849.99
7834.98
7816.4
7788.44
7780.49
7783.85
7816.78
7861.52
7901.46
7931.09
7946.39
7933.67
7919.88
7903.98
7891.62
7878.08
7914.16
7951.17
7980.42
8042.98
8088.8
8102.79
8138.07
8192.01
8248.79
8371.54
8494.77
8666.29
8786.34
8927.2
9020.34
9108.48
9095.47
9098.87
9103.62
9062.49
8942.24
8843.43
8701.1
8622.06
8438.77
8255.77
8122.96
8031.44
7904.85
7380.5
7396.09
7386.14
7369.62
7366.81
7403.09
7458.62
7532.36
7615.11
7722.05
7828.33
7909.46
7941.64
7957.77
8008.7
8017.64
8007.24
8080.73
8104.88
8090.99
8103.44
8137.57
8165.12
8224.26
8264.05
8243.38
8212.0
8182.83
8167.8
8158.71
8163.6
8173.77
8185.85
8197.26
8206.65
7683.74
7693.3
7678.41
7665.22
7654.06
7645.42
7639.77
7637.43
7638.54
7643.01
7653.55
7679.69
7687.44
7698.52
7712.12
7727.84
7875.78
7871.16
7900.03
7856.24
7836.05
7843.86
7822.9
7832.01
7835.46
7854.91
7886.83
7944.1
7994.0
8044.89
8052.32
8044.22
8032.04
8025.29
8008.34
7983.45
7997.28
7977.44
8009.5
8034.08
8056.29
8048.21
8052.68
8081.18
8163.8
8249.26
8425.84
8584.25
8775.25
8942.34
9076.87
9177.06
9103.42
9101.51
9070.32
9035.23
8880.74
8763.87
8635.99
8498.28
8402.19
8224.2
8005.9
7525.45
7507.48
7543.04
7618.14
7518.55
7490.42
7468.34
7554.52
7597.13
7646.62
7732.48
7750.41
7801.53
7898.42
7963.07
7987.07
8081.0
8087.65
8100.86
8106.21
8145.13
8109.82
8133.18
8135.71
8165.3
8174.0
8190.25
8204.19
8192.44
8171.77
8160.49
8150.08
8156.03
8168.28
8182.6
8195.74
8206.11
7638.2
7619.22
7602.96
7589.67
7579.64
7573.13
7570.31
7571.22
7575.73
7587.82
7617.69
7627.91
7639.4
7653.46
7669.82
7688.17
7708.47
7729.73
7895.12
7849.76
7850.99
7853.68
7859.56
7871.5
7893.39
7915.72
7967.7
8037.09
8095.98
8141.3
8174.68
8171.42
8155.17
8140.38
8116.68
8134.18
8114.04
8069.11
8035.16
8039.9
8040.49
8030.79
7999.86
8003.22
8038.01
8058.42
8311.03
8617.74
8881.09
9045.1
9165.41
9247.64
9185.81
9158.1
9115.27
8916.88
8814.78
8747.26
8604.54
8422.96
8336.59
8090.82
7587.12
7559.83
7641.99
7666.32
7763.75
7765.96
7698.3
7610.65
7719.77
7765.78
7730.12
7785.1
7852.41
7898.46
7987.68
8039.3
8058.48
8146.54
8148.93
8157.05
8153.2
8182.59
8132.77
8148.92
8137.14
8155.39
8141.07
8173.18
8189.66
8177.29
8163.86
8146.21
8143.18
8150.41
8164.85
8181.4
8196.16
8207.24
7567.32
7545.74
7527.94
7514.32
7505.16
7500.56
7500.44
7504.54
7517.54
7550.45
7563.01
7575.19
7589.88
7606.82
7625.82
7646.65
7664.31
7686.08
7728.44
7761.79
7827.75
7861.25
7879.7
7888.88
7945.77
8017.5
8075.85
8140.05
8203.61
8259.82
8303.02
8318.12
8298.03
8282.46
8253.32
8226.75
8172.62
8163.96
8101.75
8072.21
7959.14
8033.14
7997.85
7990.39
7949.69
7923.25
8333.46
8713.83
9016.69
9177.75
9258.5
9316.71
9115.93
9198.77
9112.94
8913.44
8795.12
8719.41
8561.9
8442.1
8174.89
7859.03
7672.29
7654.87
7705.02
7825.7
7931.61
7984.1
7980.43
7914.58
7953.54
7935.54
7957.68
7928.83
7984.76
8003.08
8059.95
8095.32
8125.69
8186.36
8201.9
8206.31
8231.21
8215.45
8158.61
8168.68
8144.61
8155.67
8125.62
8162.32
8180.73
8172.26
8156.58
8146.36
8143.79
8151.64
8167.14
8184.99
8200.9
8212.2
7496.96
7472.49
7452.87
7438.68
7430.25
7427.53
7430.19
7443.09
7453.82
7492.73
7506.0
7521.72
7539.58
7559.33
7580.82
7603.52
7581.34
7617.09
7710.94
7734.22
7737.64
7979.57
8007.28
8047.4
8101.17
8168.05
8235.23
8313.58
8306.88
8376.24
8481.06
8499.4
8465.98
8425.1
8380.16
8298.79
8209.21
8140.31
8082.69
8052.62
8026.26
8014.5
8003.57
8033.85
8076.34
8187.78
8478.88
8843.83
9212.96
9273.26
9324.51
9370.07
9352.48
9237.53
9146.41
8915.5
8792.6
8744.82
8641.09
8421.73
8017.13
7821.56
7742.65
7715.72
7801.6
7952.5
8061.1
8189.22
8277.65
8179.88
8107.48
8134.85
8141.45
8082.2
8093.0
8123.02
8118.49
8175.45
8186.56
8238.61
8246.79
8248.69
8262.43
8242.81
8186.46
8191.85
8200.29
8202.85
8147.67
8184.21
8183.08
8177.86
8164.79
8156.68
8154.89
8162.21
8176.89
8194.87
8374.01
8448.43
7427.03
7399.2
7377.35
7362.36
7354.62
7353.96
7365.12
7375.58
7417.38
7431.69
7448.99
7468.32
7489.31
7511.75
7535.56
7556.07
7543.85
7580.79
7619.38
7702.93
7835.29
7987.21
8022.08
8071.5
8136.62
8216.57
8307.36
8401.56
8477.38
8548.22
8585.87
8617.0
8590.62
8534.85
8426.91
8331.47
8260.52
8191.01
8133.08
8128.91
8124.38
8193.52
8180.09
8238.98
8247.11
8391.29
8625.29
8910.14
9160.52
9283.88
9340.85
9359.01
9378.41
9254.56
9108.51
8972.11
8895.37
8890.49
8741.25
8513.93
8084.47
7860.99
7677.8
7689.86
7829.6
7989.18
8140.63
8299.42
8359.99
8332.11
8278.81
8278.85
8264.64
8262.82
8219.46
8209.08
8203.35
8230.17
8238.99
8234.42
8283.8
8284.28
8285.56
8264.41
8215.42
8217.34
8224.89
8224.96
8243.69
8192.41
8192.35
8186.44
8180.02
8174.5
8173.55
8179.5
8070.96
8178.26
8281.5
8364.52
7357.73
7325.86
7301.26
7285.2
7278.23
7285.04
7293.8
7331.2
7352.08
7371.42
7392.92
7415.92
7439.99
7464.98
7490.86
7470.01
7506.18
7543.71
7583.33
7682.39
7810.92
7979.63
8017.78
8072.46
8145.43
8236.15
8340.29
8448.77
8548.65
8605.55
8653.99
8668.27
8669.85
8553.08
8428.49
8322.27
8243.03
8146.84
8119.02
8135.15
8216.07
8250.27
8303.06
8391.43
8487.5
8623.13
8731.78
8946.32
9135.58
9265.82
8656.8
8826.3
8809.6
8570.27
8369.91
9002.6
8933.38
9015.36
8847.36
8436.54
8223.18
7956.04
7666.42
7640.52
7738.07
7993.28
8144.9
8288.93
8349.1
8404.39
8373.42
8347.85
8378.61
8362.46
8351.06
8304.81
8290.29
8257.24
8271.96
8251.85
8299.77
8313.32
8301.22
8280.49
8244.53
8251.85
8252.1
8270.28
8265.89
8203.69
8204.87
8201.77
8198.04
7645.39
7733.87
7832.07
7937.87
8049.21
8161.82
8253.3
7289.73
7253.0
7224.98
7207.56
7205.98
7210.16
7245.61
7267.27
7288.8
7313.11
7338.97
7365.62
7392.66
7419.96
7447.02
7432.89
7469.0
7506.32
7545.75
7588.67
7933.25
7955.49
7992.12
8046.79
8122.55
8219.72
8334.56
8456.18
8566.25
8628.66
8665.71
8671.28
8606.11
8495.6
8366.21
8255.94
8193.46
8123.92
8118.97
8127.5
8204.86
8300.0
8401.16
8505.07
8609.78
8737.49
8804.53
8974.5
9126.89
8524.32
8380.0
8622.47
8477.17
8442.78
8262.8
8299.17
7967.73
8262.8
8403.05
8764.01
8438.88
8194.53
7947.5
7769.29
7758.49
7796.03
8067.07
8223.55
8297.85
8421.67
8422.72
8426.45
8433.61
8436.0
8414.28
8368.45
8343.47
8306.29
8300.21
8281.57
8323.25
8336.29
8310.54
8291.72
8272.82
8281.17
8280.15
8293.15
8290.59
8283.22
8217.61
7340.09
7408.57
7489.2
7579.02
7677.31
7782.6
7892.47
8001.28
8092.27
7224.48
7182.01
7149.83
7130.74
7129.07
7158.42
7178.44
7201.45
7228.79
7258.28
7288.49
7318.66
7348.43
7377.75
7391.98
7397.68
7433.18
7469.47
7507.46
7548.5
7683.42
7917.77
7946.43
7993.56
8064.28
8161.81
8283.46
8416.27
8528.96
8602.38
8609.92
8562.78
8460.1
8343.01
8229.92
8119.65
8030.09
7981.71
8011.84
8060.74
8179.75
8307.59
8448.33
8563.94
8678.29
8798.73
8576.41
8485.98
8366.37
8198.81
8030.7
8249.09
8215.89
8144.77
8188.8
8217.09
7937.81
8213.94
8530.46
8950.87
8841.92
8458.14
8246.61
7897.36
7726.55
7739.72
7825.98
8097.34
8220.92
8282.17
8397.03
8369.35
8473.68
8456.59
8457.87
8428.11
8396.19
8332.25
8318.99
8307.06
8324.58
8319.65
8315.2
8299.23
8310.99
7622.6
7595.62
7534.34
7488.31
7460.94
7112.27
7170.7
7239.83
7319.28
7408.28
7505.49
7608.75
7714.64
7817.06
7906.26
7164.53
7115.68
7078.69
7060.01
7056.11
7089.79
7111.54
7140.95
7174.22
7208.74
7243.04
7276.36
7308.48
7339.42
7330.65
7365.41
7399.81
7434.38
7469.9
7507.48
7631.4
7863.74
7879.56
7912.16
7969.24
8058.3
8179.12
8305.7
8422.83
8480.53
8474.83
8383.4
8274.88
8151.81
8031.99
7920.56
7828.91
7790.51
7859.55
7940.87
8102.15
8261.56
8424.88
8557.45
8678.04
8811.32
8439.62
8241.68
8048.35
7850.81
7899.51
7875.74
8019.23
7836.87
7875.13
7788.38
8010.58
8340.2
8933.66
9057.95
9036.18
8752.95
8347.26
7940.99
7776.28
7700.04
7811.23
7881.04
8095.21
8205.76
8404.12
8369.68
8371.02
8477.02
8456.63
8450.74
8410.23
8366.21
8316.66
8307.48
8330.65
8333.17
7879.99
7748.04
7636.68
7527.63
7483.77
7412.23
7358.14
7314.53
6941.18
6994.79
7060.46
7137.61
7225.05
7320.92
7422.5
7526.05
7626.48
7718.12
7113.67
7058.49
7018.13
6994.48
7011.83
7025.86
7053.6
7089.06
7127.65
7166.53
7204.21
7240.07
7273.97
7296.33
7303.23
7337.16
7370.13
7402.57
7435.04
7468.29
7575.2
7801.58
7799.98
7810.32
7842.64
7895.32
8011.44
8143.62
8250.23
8298.76
8241.58
8168.18
8060.52
7934.51
7806.65
7691.39
7571.74
7555.59
7593.33
7773.96
7967.14
8154.14
8316.47
8492.91
8601.27
8445.39
8193.7
7944.73
7700.86
7468.76
7478.04
7584.53
7587.89
7537.5
7475.0
7532.65
7802.34
8138.85
8479.22
8932.98
9062.18
8693.59
8264.22
7861.39
7874.56
7765.58
7802.93
7867.76
7908.83
8021.1
8177.62
8338.46
8369.48
8476.28
8465.54
8439.62
8140.22
8234.6
8270.9
8321.63
8351.72
7931.27
7794.6
7646.17
7500.57
7460.7
7363.47
7277.87
7210.13
7156.97
7117.82
6812.57
6873.89
6948.13
7033.85
7128.81
7230.01
7333.72
7435.76
7532.19
7076.48
7017.25
6970.65
6963.66
6959.42
6977.08
7009.43
7049.34
7091.71
7133.57
7173.5
7210.96
7245.92
7246.47
7281.07
7313.95
7345.37
7375.64
7405.07
7434.07
7519.38
7547.51
7718.91
7703.16
7678.1
7725.66
7830.16
7952.9
8044.84
8083.13
8010.17
7940.6
7835.8
7707.73
7569.69
7445.89
7304.1
7278.85
7346.31
7525.92
7799.97
8015.95
8052.57
8183.7
8209.69
8074.2
7824.89
7561.93
7285.19
7029.5
6983.27
7073.57
6973.54
7032.07
7054.31
6960.11
7357.81
7649.07
7983.07
8315.92
8443.45
8215.15
7926.1
7589.12
7301.97
7874.42
7792.95
6751.97
6724.53
6832.24
7197.92
7404.24
7508.73
7641.88
7765.43
7886.26
7997.1
8092.57
8194.45
8366.77
8012.08
7847.9
7693.75
7526.56
7382.69
7339.63
7231.3
7135.58
7054.58
6986.4
6928.64
6896.52
6684.27
6755.38
6839.59
6934.4
7036.58
7142.42
7248.17
7350.53
7057.33
6994.41
6961.17
6933.77
6930.16
6949.18
6983.23
7024.76
7068.47
7111.35
7152.0
7189.92
7224.23
7231.2
7264.91
7296.64
7326.6
7355.0
7382.0
7407.74
7468.55
7486.88
7598.97
7576.12
7558.15
7574.78
7666.64
7771.12
7843.61
7813.89
7788.83
7722.41
7620.86
7492.21
7345.17
7212.78
7029.46
6968.53
7088.16
7320.72
7631.09
7571.86
7699.73
7767.02
7737.8
7593.77
7344.54
7068.42
6807.88
6561.28
6541.29
6486.81
6428.19
6482.19
6299.02
6538.69
6831.06
7034.72
7324.33
7528.81
7666.87
7547.68
7343.57
7106.55
6909.98
6339.83
6189.65
6465.48
6437.3
6794.65
6885.74
7041.68
7215.74
7431.26
7553.32
7692.87
7823.19
7937.72
8027.97
7786.92
7707.74
7771.24
7618.45
7410.63
7271.47
7215.24
7094.6
6986.25
6889.97
6817.6
6750.19
6721.02
6715.73
6564.34
6647.41
6742.79
6846.99
6956.2
7066.74
7175.48
7055.91
7009.52
6960.71
6931.52
6927.17
6944.59
6976.75
7016.52
7058.76
7100.48
7140.2
7177.37
7198.63
7222.63
7255.22
7285.79
7314.54
7341.61
7367.13
7391.2
7426.16
7438.01
7545.05
7515.04
7492.43
7500.98
7561.22
7623.59
7613.58
7621.79
7593.51
7529.08
7432.02
7307.36
7160.4
7039.4
6825.68
6637.97
6897.09
7167.9
7084.39
7239.14
7311.95
7320.29
7244.65
7028.61
6787.48
6533.25
6245.62
6031.41
5958.98
5841.26
5834.12
5899.95
5801.65
6017.53
6207.73
6397.05
6528.57
6684.13
6787.45
6792.94
6719.61
6268.21
6138.23
5969.66
5800.69
5682.67
6154.75
6515.06
6577.68
6698.7
6999.1
7203.39
7362.29
7481.89
7615.54
7751.08
7865.14
7527.35
7469.86
7407.8
7479.64
7292.02
7140.65
7084.05
6952.31
6837.46
6731.88
6634.06
6573.78
6537.76
6527.48
6551.97
6462.57
6559.03
6665.87
6779.02
6894.7
7009.72
7072.21
7028.48
6981.16
6953.32
6947.39
6960.95
6988.36
7023.56
7061.94
7100.58
7137.92
7173.26
7187.61
7220.86
7252.15
7281.63
7309.46
7335.82
7360.88
7384.9
7393.6
7402.14
7408.14
7479.9
7460.93
7456.86
7484.29
7517.59
7469.49
7464.54
7431.47
7368.96
7278.79
7164.72
7031.96
6950.71
6794.19
6736.09
6873.47
7101.84
6802.43
6913.67
6927.42
6870.54
6713.1
6518.5
6259.92
5961.24
5713.97
5440.45
5344.62
5234.18
5240.33
5338.67
5317.93
5448.22
5561.5
5681.85
5730.99
5846.46
5980.06
6098.94
5778.97
5689.66
5616.58
5510.43
5443.43
5411.46
5392.83
6042.55
6360.0
6459.28
6607.58
6908.85
7138.6
7263.27
7423.1
7557.68
7271.17
7265.44
7226.51
7178.32
7073.58
7163.9
7023.41
6949.14
6816.15
6687.95
6563.05
6473.19
6405.5
6363.25
6348.52
6361.51
6417.59
6388.26
6497.79
6614.81
6735.33
6856.04
7115.71
7060.38
7017.66
6991.56
6983.77
6992.6
7013.93
7043.08
7076.13
7110.41
7144.32
7176.02
7194.24
7225.65
7255.54
7284.01
7311.22
7337.39
7362.81
7387.94
7370.56
7377.66
7383.45
7446.32
7428.54
7424.98
7423.0
7360.05
7357.86
7340.96
7303.62
7243.95
7163.11
7064.81
6955.41
6922.21
6842.01
6826.0
6928.8
6519.58
6550.4
6608.61
6600.24
6427.14
6269.88
6047.02
5766.01
5444.55
5131.72
4886.7
4723.71
4630.95
4655.99
4762.52
4928.22
4933.39
4974.78
5018.03
5038.88
5074.59
5173.27
5264.19
5176.16
5171.39
5147.13
5119.18
5154.04
5154.55
5154.76
5735.97
5885.29
6090.0
6391.25
6568.44
6862.86
7013.27
7219.12
7363.21
6999.37
7001.21
6977.52
6928.65
6827.12
6770.3
6892.88
6826.28
6682.33
6536.44
6422.02
6325.66
6251.75
6204.24
6185.78
6196.88
6235.56
6322.13
6347.16
6467.33
6591.79
6717.12
7150.44
7101.27
7063.05
7038.64
7029.15
7033.48
7048.77
7071.6
7098.87
7128.25
7158.21
7150.34
7207.09
7236.5
7264.94
7292.47
7319.28
7345.61
7371.88
7398.69
7355.84
7362.17
7367.83
7428.63
7408.82
7381.69
7353.1
7288.27
7272.53
7246.89
7207.03
7151.44
7081.27
7002.08
6898.72
6831.71
6904.44
6905.23
6996.99
6355.18
6328.77
6267.43
6285.31
6068.92
5880.82
5634.43
5334.02
4995.67
4642.67
4372.6
4138.66
4061.21
4117.72
4227.29
4333.7
4455.06
4477.73
4468.46
4433.85
4433.02
4571.71
4713.15
4809.79
4738.75
4767.92
4786.31
4806.36
4865.31
4914.41
5493.53
5664.94
5830.35
6089.75
6316.96
6547.29
6845.91
6989.4
6680.69
6718.87
6763.3
6747.8
6695.75
6597.12
6569.17
6777.5
6714.49
6567.38
6416.55
6297.93
6197.02
6118.6
6067.15
6045.78
6055.28
6093.64
6156.62
6269.04
6339.83
6466.81
6595.27
7190.25
7146.47
7112.15
7089.2
7078.36
7078.9
7088.93
7106.0
7127.76
7152.29
7178.21
7197.74
7225.36
7252.72
7279.7
7306.37
7332.88
7359.52
7386.78
7347.77
7357.07
7353.73
7358.77
7415.5
7392.83
7329.63
7330.04
7232.92
7208.5
7177.52
7137.15
7086.54
7029.31
6941.06
6885.34
6843.26
6934.53
6987.96
6281.46
6208.81
6139.5
6030.55
5962.38
5765.48
5555.79
5295.31
5035.87
4646.18
4277.0
3925.55
3665.13
3617.14
3680.78
3797.24
3906.12
4067.76
4090.62
4082.96
4052.87
4060.84
4185.18
4307.16
4417.29
4379.43
4434.92
4483.11
4531.57
4588.53
4691.92
5294.87
5476.29
5626.76
5907.57
6128.99
6335.15
6548.41
6826.07
6373.24
6491.31
6513.73
6540.3
6503.04
6378.09
6386.7
6324.6
6609.93
6448.32
6315.19
6194.74
6091.62
6010.82
5957.06
5933.69
5941.65
5979.04
6041.6
6123.86
6255.27
6362.39
6492.2
